EEG 1, EEG 2, EEG 3, EEG 4, EEG 5, EEG 6, EEG 7, EEG 8, CNT, VALID, DT, TRIG
145987.000,146616.500,-99292.570,146616.500,-27021.820,-21570.070,66840.480,146616.500,1.000,1.000,0.000,0.000
418128.300,492568.800,-316547.300,371419.100,-40738.880,18939.460,258659.800,486611.700,2.000,1.000,13.020,0.000
485418.600,755495.800,-346914.900,400821.600,90892.950,141345.800,494324.300,634929.100,3.000,1.000,2.553,0.000
355555.400,826700.900,-65072.730,447074.900,350986.600,48467.460,681647.300,420751.100,4.000,1.000,2.446,0.000
213319.200,808448.100,294276.900,626209.500,595985.200,-315430.800,777649.400,106401.200,5.000,1.000,2.546,0.000
152238.700,746042.100,576964.700,727705.100,747521.600,-647902.400,780660.300,-223784.500,6.000,1.000,3.456,0.000
323552.900,710811.400,733848.100,770944.400,790230.100,-815277.800,750708.300,-559560.700,7.000,1.000,14.010,0.000
636627.800,742352.400,753610.700,800753.200,761049.400,-835378.300,740567.800,-731791.900,8.000,1.000,25.637,0.000
813456.300,775340.600,727701.300,765813.300,735623.700,-757690.400,750051.600,-756881.400,9.000,1.000,0.010,0.000
799796.400,749583.400,751736.300,707521.800,747443.800,-701841.000,751097.100,-789007.100,10.000,1.000,1.892,0.000
737434.900,712585.100,788337.100,718385.700,760439.600,-738384.300,738412.500,-805710.900,11.000,1.000,2.469,0.000
726041.700,726340.100,761723.800,769000.700,745276.600,-786271.800,732198.100,-750937.400,12.000,1.000,2.536,0.000
733286.900,756541.100,715782.600,762540.100,727666.500,-757429.900,738433.800,-707990.400,13.000,1.000,5.003,0.000
671595.100,731420.400,728652.700,711607.400,735010.800,-707259.400,739998.100,-746183.200,14.000,1.000,2.443,0.000
548932.100,651360.000,767640.700,706386.600,747146.600,-722464.900,729768.000,-787444.600,15.000,1.000,2.547,0.000
443516.800,572902.600,756453.200,746844.100,737213.500,-764692.100,722331.300,-754328.300,16.000,1.000,2.523,0.000
380921.700,507957.200,715256.700,751639.100,720285.400,-751324.200,725849.400,-708391.300,17.000,1.000,2.475,0.000
328803.700,425062.200,715402.200,711193.400,722353.300,-706922.900,728269.200,-727639.800,18.000,1.000,5.005,0.000
272844.000,342065.600,747511.100,697375.900,733056.900,-708724.400,720805.600,-766204.000,19.000,1.000,3.078,0.000
237486.400,310639.400,746652.400,727121.000,727897.800,-743988.900,713062.400,-748882.700,20.000,1.000,0.008,0.000
232994.900,320136.300,713358.600,738286.100,713096.400,-742080.200,714019.000,-707853.300,21.000,1.000,1.493,0.000
233939.000,314634.600,705335.800,708625.300,711145.100,-705837.700,716343.900,-713651.400,22.000,1.000,8.508,0.000
221153.700,287019.300,729029.600,690612.500,719307.000,-698369.900,711235.300,-745844.200,23.000,1.000,0.010,0.000
206108.100,275362.600,734373.300,709913.200,717454.600,-724772.300,703984.900,-739864.400,24.000,1.000,1.894,0.000
202865.700,284805.500,709726.700,723362.700,705517.100,-730010.700,702914.500,-706348.500,25.000,1.000,2.468,0.000
203590.900,282468.100,697430.100,703575.800,701041.200,-702984.400,704503.500,-702999.000,26.000,1.000,4.972,0.000
195612.500,261080.800,712651.400,685025.100,706242.700,-690472.800,701144.200,-727033.500,27.000,1.000,2.558,0.000
183570.300,248548.400,720578.300,695343.900,706242.500,-707759.400,694873.900,-728124.800,28.000,1.000,3.094,0.000
178843.300,254118.200,704022.400,707933.700,697306.600,-716177.600,692420.000,-703084.100,29.000,1.000,0.008,0.000
179541.300,254856.000,690707.300,696135.000,691674.300,-697922.900,692934.500,-694705.100,30.000,1.000,7.902,0.000
175771.400,240328.100,698525.800,679632.600,694023.200,-683962.600,690672.400,-710384.800,31.000,1.000,5.502,0.000
167036.700,228664.900,706214.100,683148.400,694631.100,-693159.700,685580.600,-714712.100,32.000,1.000,0.008,0.000
161331.500,230503.000,696278.400,692865.300,688382.900,-701614.600,682378.200,-697677.400,33.000,1.000,6.930,0.000
160860.400,231949.000,684290.000,686706.300,682685.100,-690645.200,681746.700,-687718.700,34.000,1.000,2.561,0.000
159579.400,222804.000,686462.900,673701.300,682659.800,-677875.400,679985.800,-696063.300,35.000,1.000,2.455,0.000
154061.600,213219.800,692062.600,672818.800,682956.600,-680806.200,676033.100,-700633.900,36.000,1.000,2.546,0.000
148294.200,212328.500,686812.900,678748.100,678796.100,-687188.400,672621.800,-690156.400,37.000,1.000,9.503,0.000
146316.800,213019.900,677509.400,675867.800,673770.600,-681463.600,670976.400,-681108.700,38.000,1.000,0.009,0.000
146053.100,207551.500,676046.400,666787.000,672050.600,-671462.300,669246.300,-683875.000,39.000,1.000,1.930,0.000
143266.300,200578.300,678669.000,663738.600,671481.900,-670273.100,666227.400,-686719.800,40.000,1.000,8.559,0.000
138229.000,198160.500,676111.000,665882.600,668688.600,-673517.000,662999.800,-680850.800,41.000,1.000,3.079,0.000
134945.100,197443.800,669948.100,664245.500,664712.700,-670885.100,660599.600,-674165.800,42.000,1.000,0.009,0.000
134700.700,194139.900,666750.300,658724.600,662024.200,-664242.300,658589.200,-673386.500,43.000,1.000,1.902,0.000
134005.200,189830.900,666323.900,655298.100,660377.300,-661002.900,656210.100,-673547.300,44.000,1.000,11.522,0.000
130230.400,186992.500,664712.500,654310.600,658250.300,-660943.900,653395.400,-670266.400,45.000,1.000,5.596,0.000
126054.700,184732.600,661435.800,652410.600,655388.600,-659488.800,650551.400,-666447.700,46.000,1.000,0.010,0.000
125117.100,182234.800,658044.200,649579.400,652381.900,-656003.100,648110.400,-664049.100,47.000,1.000,1.873,0.000
125715.800,180161.300,655087.300,646981.300,649719.700,-652420.900,646059.200,-661424.900,48.000,1.000,6.003,0.000
123513.900,177860.300,653030.100,643877.100,647678.700,-649559.900,643734.600,-658966.100,49.000,1.000,6.680,0.000
119139.100,174513.800,650390.400,640810.900,645763.500,-647822.300,640746.000,-657773.100,50.000,1.000,0.014,0.000
117305.700,171990.500,643338.100,639577.500,642934.700,-646762.200,637862.300,-655310.100,51.000,1.000,7.795,0.000
118443.400,171517.800,632132.900,638416.800,639505.900,-644024.700,635863.400,-650417.300,52.000,1.000,0.010,0.000
117700.400,170240.400,622001.900,634304.500,637147.700,-639255.300,633985.500,-647471.800,53.000,1.000,1.937,0.000
113595.800,166270.100,615467.300,629736.900,635873.100,-636328.700,631095.300,-648179.600,54.000,1.000,6.157,0.000
110848.100,163131.600,608601.400,629028.600,633528.900,-636703.300,627857.300,-646695.400,55.000,1.000,3.879,0.000
111906.400,163506.300,598250.400,629395.000,629673.900,-635439.300,625706.500,-640400.800,56.000,1.000,4.033,0.000
112397.400,163486.500,588617.000,625267.700,626787.300,-629790.000,624152.400,-636196.400,57.000,1.000,0.012,0.000
109011.800,159529.100,583786.000,619320.000,625798.900,-625308.600,621522.400,-637859.000,58.000,1.000,13.528,0.000
105592.300,155637.300,579307.100,618257.200,624059.600,-626104.800,618076.900,-637860.900,59.000,1.000,3.038,0.000
106142.000,156189.200,569938.000,619856.500,620128.300,-626440.600,615655.600,-631133.000,60.000,1.000,0.008,0.000
107473.500,157327.900,559960.300,616455.900,616675.800,-620864.300,614265.200,-624921.800,61.000,1.000,1.913,0.000
105045.900,153879.300,555654.900,609555.300,615644.200,-614911.100,611971.300,-623169.100,62.000,1.000,3.450,0.000
101291.000,149317.900,553177.100,607548.800,614474.600,-615271.800,608481.900,-616004.700,63.000,1.000,9.023,0.000
101110.000,149507.700,545321.600,609861.000,610763.400,-616949.300,605754.900,-597304.300,64.000,1.000,4.026,0.000
102868.800,151531.800,535204.500,607617.500,606840.900,-612180.900,604368.500,-577241.000,65.000,1.000,0.015,0.000
101483.700,148977.200,530731.900,600301.500,605469.000,-605151.600,602409.200,-566485.200,66.000,1.000,15.969,0.000
97771.570,144059.900,529658.600,596573.300,604206.400,-604481.700,598612.700,-559017.300,67.000,1.000,2.994,0.000
96819.310,143577.100,523549.200,597551.800,599457.400,-607005.500,594240.300,-543833.300,68.000,1.000,0.007,0.000
98592.590,146098.800,513612.000,594492.300,593143.600,-603491.000,590658.600,-525298.100,69.000,1.000,2.023,0.000
98142.840,144597.800,508541.100,585227.300,589174.100,-595944.000,586785.200,-514619.800,70.000,1.000,5.612,0.000
94778.730,139652.400,508203.600,578779.100,586637.600,-593947.800,581581.500,-508661.800,71.000,1.000,0.011,0.000
93180.130,138329.100,503859.500,579047.300,582142.100,-596731.000,576639.100,-495968.600,72.000,1.000,1.873,0.000
94684.980,140904.900,494529.700,577668.900,576280.300,-594620.800,573350.000,-478346.800,73.000,1.000,2.440,0.000
94983.800,140444.900,488755.600,569691.000,572405.300,-587020.100,570268.700,-467254.500,74.000,1.000,8.616,0.000
92170.980,135843.500,488562.600,562689.700,570304.800,-583102.300,565778.900,-462204.200,75.000,1.000,9.448,0.000
90092.650,133754.200,485786.800,562424.800,566642.100,-584398.600,561047.300,-451934.200,76.000,1.000,0.013,0.000
91115.020,136050.900,477418.000,562187.100,561196.000,-582082.900,557793.400,-435611.800,77.000,1.000,2.557,0.000
91918.660,136490.800,471052.700,555557.100,557191.800,-573680.600,555122.800,-424033.800,78.000,1.000,0.012,0.000
89785.730,132499.500,470548.300,548264.700,555249.900,-567860.300,551257.900,-419234.500,79.000,1.000,7.929,0.000
87467.880,129794.700,469000.500,547201.400,552316.100,-568431.400,546810.600,-411035.900,80.000,1.000,9.482,0.000
87910.450,131541.800,461816.300,547663.600,547394.000,-567524.800,543549.900,-396300.800,81.000,1.000,0.012,0.000
88934.160,132630.100,455075.000,542453.400,543290.000,-560427.100,541119.900,-384402.000,82.000,1.000,2.571,0.000
87471.720,129412.500,453932.100,535208.700,541311.400,-554079.400,537789.700,-379402.000,83.000,1.000,0.013,0.000
85129.770,126321.300,453183.400,533238.200,538931.400,-553861.400,533662.300,-372843.100,84.000,1.000,10.376,0.000
84997.060,127364.800,447262.300,533947.900,534578.400,-553810.100,530381.200,-359878.800,85.000,1.000,7.689,0.000
86023.500,128831.000,440457.300,530082.300,530460.100,-548046.300,528065.300,-347927.900,86.000,1.000,0.014,0.000
85195.790,126478.100,438579.900,523226.500,528341.800,-541495.900,525182.200,-342406.900,87.000,1.000,0.004,0.000
83059.950,123290.000,438264.900,520420.800,526348.400,-540343.300,521413.400,-336951.300,88.000,1.000,5.330,0.000
82480.190,123622.400,433610.100,521008.900,522574.600,-540698.000,518145.800,-325727.800,89.000,1.000,0.012,0.000
83343.520,125190.900,427057.900,518287.400,518541.800,-536246.300,515851.500,-314032.900,90.000,1.000,1.970,0.000
82984.410,123627.900,424435.600,512064.200,516222.300,-529868.900,513294.900,-307937.900,91.000,1.000,11.538,0.000
81140.710,120549.900,424162.900,508586.200,514435.600,-527835.500,509876.300,-303187.800,92.000,1.000,7.114,0.000
80229.000,120231.400,420607.600,508776.900,511192.200,-528215.100,506661.800,-293622.600,93.000,1.000,0.010,0.000
80823.580,121673.700,414551.500,506927.400,507340.300,-524917.800,504338.800,-282486.700,94.000,1.000,0.004,0.000
80792.090,120784.800,411317.300,501496.600,504829.500,-518989.200,502009.000,-275856.700,95.000,1.000,2.835,0.000
79313.680,117999.300,410820.700,497585.300,503112.400,-516210.700,498922.000,-271425.700,96.000,1.000,3.548,0.000
78211.390,117147.800,408129.400,497220.300,500316.600,-516324.700,495802.200,-263320.800,97.000,1.000,14.917,0.000
78481.490,118283.600,402722.400,495939.900,496712.500,-513953.200,493426.500,-252989.500,98.000,1.000,9.010,0.000
78622.030,117901.100,399078.600,491352.400,494054.900,-508667.500,491233.800,-245969.800,99.000,1.000,5.645,0.000
77525.490,115538.100,398215.100,487262.900,492310.900,-505352.300,488443.900,-241562.500,100.000,1.000,0.021,0.000
76378.840,114338.200,396145.300,486303.600,489868.600,-504994.800,485462.200,-234641.100,101.000,1.000,1.251,0.000
76341.270,115089.200,391452.400,485313.200,486556.200,-503251.900,483043.400,-225264.000,102.000,1.000,2.410,0.000
76518.930,115033.500,387596.300,481525.600,483817.400,-498698.000,480918.300,-218077.100,103.000,1.000,2.408,0.000
75752.070,113139.900,386280.400,477481.200,481985.300,-495104.400,478372.900,-213540.200,104.000,1.000,2.421,0.000
74664.700,111765.400,384569.300,475973.800,479791.300,-494218.600,475552.700,-207520.600,105.000,1.000,2.697,0.000
74364.750,112099.200,380563.900,475036.700,476774.400,-492844.500,473109.400,-199148.200,106.000,1.000,0.030,0.000
74468.530,112170.200,376686.000,471931.400,474019.100,-489013.100,470999.000,-192010.100,107.000,1.000,11.879,0.000
73953.340,110686.000,374930.300,468099.600,472071.600,-485352.200,468637.300,-187270.500,108.000,1.000,6.903,0.000
72989.910,109245.200,373356.100,466148.500,470026.800,-483944.300,465983.500,-181876.200,109.000,1.000,0.017,0.000
72493.770,109187.200,369959.100,465097.900,467286.900,-482699.000,463545.500,-174455.400,110.000,1.000,0.005,0.000
72467.590,109254.300,366228.600,462524.000,464580.000,-479511.300,461425.500,-167548.500,111.000,1.000,3.527,0.000
72121.210,108116.800,364111.000,459010.700,462521.500,-475976.200,459191.400,-162635.200,112.000,1.000,0.016,0.000
71325.830,106737.500,362530.800,456755.600,460547.100,-474140.600,456697.800,-157635.500,113.000,1.000,1.865,0.000
70744.130,106398.800,359656.600,455497.100,458046.900,-472849.800,454297.100,-151030.300,114.000,1.000,10.921,0.000
70597.450,106409.800,356208.700,453289.700,455435.700,-470173.300,452159.300,-144468.300,115.000,1.000,7.078,0.000
70351.790,105582.100,353860.900,450140.600,453295.200,-466880.800,450008.100,-139426.000,116.000,1.000,0.016,0.000
69727.270,104365.800,352179.300,447726.300,451337.300,-464740.400,447659.200,-134641.700,117.000,1.000,13.397,0.000
69119.230,103821.800,349669.700,446225.600,449024.100,-463300.200,445317.100,-128730.600,118.000,1.000,0.017,0.000
68826.660,103683.600,346523.300,444229.400,446533.900,-460985.200,443164.400,-122627.900,119.000,1.000,1.944,0.000
68592.610,103036.100,344040.600,441433.500,444347.500,-457987.700,441060.000,-117577.500,120.000,1.000,3.985,0.000
68120.330,102002.400,342210.800,438985.600,442372.500,-455663.700,438831.100,-112916.000,121.000,1.000,4.042,0.000
67551.070,101352.600,339942.100,437261.800,440194.200,-454015.400,436564.500,-107555.600,122.000,1.000,0.014,0.000
67163.050,101064.400,337115.000,435354.500,437836.000,-451915.300,434412.100,-101948.300,123.000,1.000,5.929,0.000
66902.480,100504.300,334604.200,432856.600,435636.800,-449228.300,432325.400,-97017.230,124.000,1.000,6.655,0.000
66527.370,99637.070,332611.300,430459.900,433623.000,-446855.700,430179.600,-92459.520,125.000,1.000,0.011,0.000
66015.140,98967.200,330459.900,428560.500,431528.700,-445016.000,427990.800,-87518.790,126.000,1.000,2.352,0.000
65561.490,98570.030,327911.500,426655.500,429297.800,-443018.400,425856.100,-82380.860,127.000,1.000,0.011,0.000
65251.660,98066.600,325466.600,424393.900,427129.000,-440602.500,423784.900,-77619.400,128.000,1.000,13.536,0.000
64940.540,97360.020,323357.300,422118.800,425090.600,-438263.300,421707.800,-73116.610,129.000,1.000,3.045,0.000
64493.170,96709.520,321232.800,420112.800,423042.900,-436258.000,419596.300,-68461.860,130.000,1.000,0.011,0.000
63988.450,96195.430,318881.300,418153.900,420913.900,-434264.300,417487.600,-63749.300,131.000,1.000,1.907,0.000
63601.790,95667.660,316534.800,416040.400,418789.500,-432059.700,415419.000,-59240.020,132.000,1.000,11.044,0.000
63329.510,95086.450,314367.400,413905.300,416735.100,-429822.300,413384.000,-54823.860,133.000,1.000,5.465,0.000
62979.910,94514.710,312243.000,411863.300,414710.400,-427719.200,411344.300,-50357.920,134.000,1.000,0.011,0.000
62490.880,93944.610,310043.500,409841.100,412665.800,-425682.200,409279.400,-45982.180,135.000,1.000,5.961,0.000
62047.420,93368.270,307827.100,407809.800,410604.000,-423615.200,407221.400,-41750.020,136.000,1.000,6.651,0.000
61764.240,92837.110,305642.200,405806.400,408548.600,-421510.500,405209.100,-37478.920,137.000,1.000,0.012,0.000
61472.290,92322.080,303484.000,403775.300,406521.600,-419385.900,403218.600,-33180.590,138.000,1.000,1.863,0.000
61015.800,91732.270,301384.200,401692.100,404529.400,-417294.500,401197.300,-29075.180,139.000,1.000,2.457,0.000
60536.710,91115.840,299312.900,399686.900,402532.900,-415296.600,399156.800,-25110.180,140.000,1.000,2.540,0.000
60223.030,90610.900,297160.700,397794.700,400498.600,-413309.700,397161.600,-21009.160,141.000,1.000,4.007,0.000
59974.780,90169.600,294965.200,395825.300,398474.900,-411192.700,395216.300,-16840.610,142.000,1.000,11.499,0.000
59577.490,89600.630,292891.300,393713.200,396518.800,-409039.600,393245.400,-12949.130,143.000,1.000,0.013,0.000
59088.440,88940.060,290910.700,391696.100,394581.000,-407064.400,391228.800,-9267.827,144.000,1.000,2.573,0.000
58737.970,88421.240,288809.300,389878.400,392581.400,-405184.500,389245.600,-5387.303,145.000,1.000,0.014,0.000
58501.790,88021.140,286583.700,387986.500,390558.900,-403127.400,387327.800,-1359.654,146.000,1.000,8.369,0.000
58144.820,87479.090,284496.200,385871.800,388615.900,-400944.400,385398.600,2372.689,147.000,1.000,2.096,0.000
57659.610,86792.340,282591.800,383826.900,386727.600,-398957.300,383413.600,5838.092,148.000,1.000,6.433,0.000
57279.510,86244.230,280581.300,382048.800,384774.400,-397157.900,381444.300,9520.735,149.000,1.000,7.089,0.000
57051.090,85876.320,278380.600,380243.800,382766.100,-395188.300,379549.500,13443.220,150.000,1.000,0.012,0.000
56751.640,85396.550,276294.500,378165.600,380832.900,-393001.200,377664.000,17093.120,151.000,1.000,8.406,0.000
56288.720,84719.130,274444.800,376091.500,378979.500,-390971.800,375714.000,20375.240,152.000,1.000,0.011,0.000
55862.560,84137.520,272522.800,374311.500,377067.300,-389206.200,373752.700,23803.260,153.000,1.000,1.916,0.000
55598.880,83780.700,270365.300,372574.300,375074.000,-387325.800,371864.500,27534.180,154.000,1.000,4.040,0.000
55326.670,83361.020,268273.000,370553.700,373142.800,-385169.000,370011.300,31061.950,155.000,1.000,9.025,0.000
54900.760,82704.020,266450.100,368467.200,371316.500,-383105.400,368103.400,34168.870,156.000,1.000,0.013,0.000
54461.980,82070.480,264610.900,366671.400,369453.500,-381349.700,366164.500,37333.870,157.000,1.000,1.919,0.000
54172.240,81669.030,262511.000,364989.800,367491.100,-379552.200,364286.500,40826.890,158.000,1.000,6.181,0.000
53915.510,81265.560,260409.200,363041.000,365562.100,-377449.100,362457.800,44203.520,159.000,1.000,4.474,0.000
53515.620,80629.420,258588.700,360955.300,363746.500,-375357.200,360586.000,47157.800,160.000,1.000,0.013,0.000
53068.810,79978.220,256836.200,359130.000,361924.900,-373582.200,358671.600,50108.360,161.000,1.000,3.341,0.000
52760.090,79567.120,254842.300,357483.200,360001.200,-371852.300,356804.200,53408.270,162.000,1.000,13.578,0.000
52520.070,79213.270,252774.800,355611.900,358079.800,-369827.400,354994.000,56686.890,163.000,1.000,3.067,0.000
52163.550,78648.960,250962.600,353548.100,356269.100,-367727.700,353156.100,59561.010,164.000,1.000,0.018,0.000
51727.770,78011.340,249278.000,351688.800,354479.900,-365917.800,351268.300,62341.970,165.000,1.000,1.893,0.000
51394.730,77575.630,247388.300,350053.000,352596.600,-364226.100,349411.300,65447.770,166.000,1.000,2.467,0.000
51156.780,77240.290,245378.600,348258.100,350691.800,-362273.700,347617.900,68634.060,167.000,1.000,8.995,0.000
50836.890,76722.440,243577.500,346237.300,348885.100,-360185.500,345813.300,71468.670,168.000,1.000,3.036,0.000
50414.380,76087.450,241939.100,344350.500,347119.800,-358345.700,343954.700,74130.860,169.000,1.000,0.011,0.000
50052.940,75622.030,240143.800,342706.100,345274.700,-356679.500,342108.600,77059.570,170.000,1.000,24.526,0.000
49798.890,75303.690,238201.000,340973.700,343389.900,-354805.000,340325.900,80141.180,171.000,1.000,4.558,0.000
49508.090,74857.050,236420.900,339009.600,341587.200,-352743.900,338550.500,82948.850,172.000,1.000,2.862,0.000
49115.980,74263.980,234827.800,337111.400,339843.100,-350864.000,336726.000,85537.340,173.000,1.000,4.993,0.000
48746.630,73776.060,233122.700,335451.000,338038.300,-349194.300,334897.800,88311.240,174.000,1.000,2.144,0.000
48473.170,73436.590,231239.100,333765.500,336178.400,-347394.400,333123.100,91255.650,175.000,1.000,5.438,0.000
48189.360,73014.520,229451.800,331860.300,334376.900,-345394.700,331367.100,93987.300,176.000,1.000,2.408,0.000
47816.470,72443.160,227859.600,329960.600,332643.100,-343501.700,329571.900,96481.510,177.000,1.000,2.122,0.000
47442.630,71933.350,226215.100,328275.400,330870.600,-341818.000,327761.800,99095.740,178.000,1.000,2.417,0.000
47151.140,71570.790,224390.400,326618.000,329036.800,-340068.800,325993.200,101887.100,179.000,1.000,6.505,0.000
46872.470,71167.210,222600.300,324771.400,327239.300,-338123.700,324251.600,104526.400,180.000,1.000,2.513,0.000
46519.620,70621.800,220991.700,322884.600,325512.600,-336223.200,322483.900,106927.400,181.000,1.000,3.087,0.000
46148.570,70101.940,219386.400,321178.800,323770.900,-334516.700,320697.800,109387.600,182.000,1.000,0.015,0.000
45850.380,69722.300,217627.800,319542.300,321972.300,-332799.500,318944.100,112018.200,183.000,1.000,1.889,0.000
45584.510,69337.510,215859.500,317755.400,320189.400,-330909.400,317220.500,114553.800,184.000,1.000,2.472,0.000
45262.880,68824.390,214245.800,315894.500,318469.600,-329019.400,315479.500,116866.800,185.000,1.000,3.022,0.000
44907.120,68296.090,212669.800,314170.600,316751.000,-327300.700,313716.200,119181.100,186.000,1.000,0.009,0.000
44593.280,67870.140,210957.800,312536.500,314980.400,-325610.800,311971.300,121629.800,187.000,1.000,8.095,0.000
44313.810,67459.680,209197.000,310794.500,313209.100,-323774.400,310255.900,124026.700,188.000,1.000,4.524,0.000
44001.430,66952.590,207561.300,308966.000,311493.400,-321900.800,308536.000,126236.800,189.000,1.000,0.009,0.000
43652.710,66415.340,205990.800,307233.800,309793.400,-320164.700,306796.900,128407.800,190.000,1.000,1.874,0.000
43332.220,65965.760,204327.400,305601.400,308054.300,-318488.700,305069.200,130681.200,191.000,1.000,9.503,0.000
43054.190,65561.650,202609.000,303904.400,306306.500,-316701.400,303370.400,132941.800,192.000,1.000,0.014,0.000
42760.280,65089.580,200982.600,302118.500,304602.100,-314851.600,301674.300,135050.800,193.000,1.000,1.903,0.000
42427.360,64570.090,199429.700,300388.900,302919.900,-313103.300,299961.400,137096.000,194.000,1.000,16.047,0.000
42100.520,64103.370,197814.100,298753.800,301209.800,-311433.300,298251.600,139213.300,195.000,1.000,5.730,0.000
41805.540,63680.750,196134.000,297086.300,299483.000,-309688.900,296563.900,141336.900,196.000,1.000,0.014,0.000
41510.420,63217.640,194513.400,295338.300,297786.800,-307872.600,294883.900,143339.900,197.000,1.000,0.004,0.000
41188.810,62713.700,192967.800,293617.300,296116.600,-306122.600,293192.900,145264.000,198.000,1.000,0.004,0.000
40864.820,62245.430,191388.700,291977.500,294429.700,-304451.300,291500.700,147227.600,199.000,1.000,4.243,0.000
40566.260,61822.120,189751.500,290331.900,292726.000,-302740.000,289826.200,149211.700,200.000,1.000,2.563,0.000
40274.620,61370.540,188144.700,288622.800,291043.400,-300967.200,288163.700,151111.400,201.000,1.000,4.973,0.000
39962.070,60870.950,186597.600,286918.500,289385.500,-299232.100,286494.700,152931.100,202.000,1.000,3.576,0.000
39643.240,60394.260,185046.400,285278.300,287720.100,-297563.300,284822.500,154767.900,203.000,1.000,9.524,0.000
39344.130,59971.600,183463.900,283649.200,286040.200,-295876.200,283162.900,156624.400,204.000,1.000,0.013,0.000
39056.090,59546.420,181901.800,281972.900,284371.300,-294136.000,281514.100,158409.800,205.000,1.000,1.882,0.000
38756.560,59086.830,180392.800,280288.300,282722.900,-292413.000,279862.900,160114.600,206.000,1.000,6.026,0.000
38448.350,58634.490,178897.600,278649.700,281074.700,-290746.400,278208.900,161820.200,207.000,1.000,7.614,0.000
38151.740,58216.810,177381.600,277030.300,279415.900,-289080.300,276563.300,163547.800,208.000,1.000,3.489,0.000
37869.570,57801.470,175870.200,275381.700,277763.000,-287371.400,274927.900,165235.200,209.000,1.000,0.013,0.000
37583.450,57366.520,174395.800,273721.600,276127.200,-285658.900,273294.900,166867.800,210.000,1.000,10.315,0.000
37282.120,56934.100,172936.200,272092.500,274497.300,-283989.200,271662.100,168496.300,211.000,1.000,3.056,0.000
36977.690,56516.110,171454.900,270485.000,272862.500,-282342.400,270035.800,170134.600,212.000,1.000,0.018,0.000
36685.630,56083.390,169961.700,268862.400,271229.900,-280677.800,268417.700,171744.300,213.000,1.000,4.469,0.000
36400.940,55612.210,168489.300,267228.200,269608.500,-279001.700,266802.700,173319.800,214.000,1.000,2.426,0.000
36112.670,55135.790,167038.600,265610.800,267993.400,-277342.200,265188.100,174889.500,215.000,1.000,4.005,0.000
35822.580,54701.910,165591.400,264010.600,266376.600,-275695.100,263576.800,176456.300,216.000,1.000,6.651,0.000
35535.860,54300.800,164145.400,262406.200,264761.100,-274041.500,261972.000,177993.700,217.000,1.000,0.015,0.000
35250.370,53899.690,162710.300,260795.700,263153.600,-272386.500,260372.700,179499.700,218.000,1.000,8.363,0.000
34960.890,53484.020,161281.400,259195.000,261554.500,-270744.100,258777.700,180997.400,219.000,1.000,4.036,0.000
34666.520,53052.270,159847.000,257607.800,259959.500,-269112.200,257187.600,182497.700,220.000,1.000,0.010,0.000
34372.350,52615.130,158408.600,256023.100,258366.800,-267478.800,255602.200,183986.200,221.000,1.000,8.991,0.000
34084.980,52192.660,156976.500,254437.800,256778.000,-265839.700,254021.400,185450.500,222.000,1.000,0.012,0.000
33800.950,51782.770,155549.100,252855.600,255193.300,-264206.500,252443.800,186886.400,223.000,1.000,1.920,0.000
33511.710,51367.110,154125.100,251276.600,253611.000,-262587.000,250867.300,188299.500,224.000,1.000,8.589,0.000
33219.040,50945.100,152710.000,249701.500,252032.000,-260972.700,249293.300,189700.300,225.000,1.000,6.670,0.000
32933.090,50530.170,151302.500,248133.900,250457.600,-259355.100,247725.600,191091.700,226.000,1.000,0.014,0.000
32655.180,50129.910,149899.400,246571.700,248888.400,-257736.000,246165.300,192468.400,227.000,1.000,2.762,0.000
32374.710,49733.110,148502.500,245009.200,247324.600,-256124.000,244608.500,193820.600,228.000,1.000,0.011,0.000
32088.570,49324.420,147112.300,243448.400,245764.300,-254527.100,243051.700,195143.800,229.000,1.000,5.528,0.000
31807.820,48913.920,145727.500,241897.100,244205.600,-252938.300,241498.000,196452.500,230.000,1.000,6.456,0.000
31538.860,48522.050,144350.600,240353.300,242650.700,-251343.700,239952.600,197762.700,231.000,1.000,6.637,0.000
31272.500,48144.770,142984.500,238807.700,241103.300,-249745.900,238413.800,199054.300,232.000,1.000,0.014,0.000
30998.930,47763.060,141624.400,237262.000,239561.800,-248158.900,236875.700,200301.300,233.000,1.000,6.902,0.000
30721.590,47375.380,140259.800,235727.100,238021.300,-246586.600,235338.600,201520.100,234.000,1.000,2.421,0.000
30449.500,46992.290,138887.500,234201.600,236481.700,-245015.400,233808.200,202742.400,235.000,1.000,4.002,0.000
30184.230,46607.570,137517.100,232672.000,234947.800,-243435.900,232284.500,203953.700,236.000,1.000,18.722,0.000
29916.580,46209.430,136157.100,231139.900,233422.300,-241862.600,230762.800,205122.800,237.000,1.000,0.018,0.000
29641.960,45807.910,134798.300,229621.200,231900.900,-240309.200,229243.500,206260.500,238.000,1.000,0.006,0.000
29370.600,45423.820,133432.700,228115.000,230379.500,-238762.500,227730.200,207399.600,239.000,1.000,2.259,0.000
29105.620,45043.110,132063.700,226603.400,228860.500,-237201.100,226222.400,208526.000,240.000,1.000,5.003,0.000
28836.970,44635.710,130695.400,225084.900,227348.700,-235634.000,224715.900,209606.400,241.000,1.000,2.549,0.000
28564.870,44211.790,129328.400,223578.000,225842.300,-234088.700,223210.900,210657.500,242.000,1.000,2.449,0.000
28298.510,43804.840,127963.200,222087.300,224337.000,-232560.000,221712.300,211721.800,243.000,1.000,2.536,0.000
28032.610,43408.380,126596.800,220594.400,222834.000,-231021.400,220220.800,212783.400,244.000,1.000,2.427,0.000
27754.310,42990.010,125230.900,219091.700,221337.400,-229476.800,218730.700,213794.400,245.000,1.000,6.192,0.000
27470.990,42558.950,123877.400,217597.300,219846.500,-227946.400,217241.200,214766.000,246.000,1.000,4.973,0.000
27199.300,42151.920,122539.900,216121.800,218357.700,-226426.700,215758.000,215749.000,247.000,1.000,3.071,0.000
26935.420,41760.910,121204.600,214647.200,216870.800,-224899.700,214282.300,216735.400,248.000,1.000,0.011,0.000
26664.840,41350.560,119867.900,213162.500,215390.300,-223365.200,212809.300,217679.200,249.000,1.000,1.905,0.000
26388.950,40922.850,118539.600,211683.500,213916.600,-221844.300,211337.200,218580.300,250.000,1.000,11.450,0.000
26120.460,40511.160,117221.700,210221.000,212443.400,-220344.900,209868.500,219479.200,251.000,1.000,6.651,0.000
25861.940,40125.310,115911.400,208762.800,210971.300,-218846.900,208407.000,220385.900,252.000,1.000,0.016,0.000
25605.660,39739.630,114610.600,207297.600,209507.500,-217336.200,206952.000,221264.800,253.000,1.000,1.893,0.000
25347.530,39337.910,113319.800,205834.600,208051.300,-215826.500,205498.300,222097.400,254.000,1.000,2.897,0.000
25093.540,38940.620,112036.300,204386.600,206596.200,-214332.300,204046.400,222917.200,255.000,1.000,5.972,0.000
24845.260,38560.770,110755.800,202944.700,205140.300,-212847.800,202600.000,223748.300,256.000,1.000,7.023,0.000
24593.440,38174.290,109475.200,201494.100,203688.500,-211364.500,201157.600,224557.600,257.000,1.000,0.011,0.000
24336.060,37768.970,108200.300,200042.700,202244.400,-209887.500,199717.000,225321.200,258.000,1.000,6.014,0.000
24082.250,37371.420,106937.900,198606.800,200804.600,-208420.100,198279.900,226072.200,259.000,1.000,0.016,0.000
23835.980,37000.550,105687.900,197181.800,199366.500,-206950.900,196850.300,226844.900,260.000,1.000,1.911,0.000
23590.490,36631.870,104440.800,195752.400,197933.500,-205474.800,195427.100,227610.100,261.000,1.000,10.008,0.000
23338.700,36237.940,103190.500,194319.400,196507.400,-204000.800,194005.600,228328.300,262.000,1.000,5.034,0.000
23083.120,35834.750,101941.500,192896.300,195084.400,-202539.000,192584.900,229020.300,263.000,1.000,6.120,0.000
22831.690,35454.500,100702.000,191483.700,193661.500,-201087.200,191168.800,229727.900,264.000,1.000,5.986,0.000
22583.480,35086.360,99467.840,190067.500,192241.300,-199632.500,189757.900,230430.400,265.000,1.000,0.217,0.000
22333.950,34706.790,98237.200,188644.800,190827.800,-198177.900,188349.600,231092.400,266.000,1.000,1.647,0.000
22084.260,34325.850,97016.550,187227.000,189419.200,-196737.400,186943.300,231731.600,267.000,1.000,2.122,0.000
21836.560,33960.560,95807.730,185811.700,188011.800,-195303.500,185541.600,232383.500,268.000,1.000,3.863,0.000
21591.490,33602.210,94605.130,184333.600,186607.800,-193860.100,184146.400,233038.300,269.000,1.000,7.046,0.000
21343.840,33234.050,93403.660,182623.200,185210.600,-192414.800,182755.200,233664.100,270.000,1.000,0.011,0.000
21089.100,32859.120,92202.030,180635.200,183818.200,-190984.200,181365.900,234263.300,271.000,1.000,7.964,0.000
20833.130,32491.510,91002.810,178629.200,182427.200,-189565.400,179980.400,234864.000,272.000,1.000,9.220,0.000
20581.000,32129.340,89805.770,176768.400,181038.100,-188145.200,178600.100,235465.100,273.000,1.000,0.012,0.000
20331.290,31764.410,88613.910,174882.500,179654.900,-186722.300,177223.900,236046.900,274.000,1.000,2.798,0.000
20081.790,31398.170,87431.380,172837.600,178277.300,-185305.000,175850.100,236608.700,275.000,1.000,0.021,0.000
19835.620,31037.010,86256.940,170791.300,176902.200,-183893.600,174479.800,237164.100,276.000,1.000,1.918,0.000
19595.130,30679.850,85087.480,168890.200,175529.300,-182478.900,173115.000,237714.900,277.000,1.000,11.035,0.000
19355.310,30320.820,83924.020,167025.800,174161.500,-181062.500,171754.700,238253.200,278.000,1.000,3.020,0.000
19111.710,29961.850,82768.910,165075.100,172800.000,-179655.000,170397.900,238781.200,279.000,1.000,0.013,0.000
18867.430,29608.810,81619.060,163112.400,171442.000,-178258.000,169044.600,239303.900,280.000,1.000,8.089,0.000
18627.550,29262.260,80472.630,161246.100,170085.400,-176864.900,167694.800,239821.200,281.000,1.000,3.081,0.000
18390.810,28915.670,79331.900,159432.400,168731.900,-175470.200,166348.400,240327.100,282.000,1.000,0.011,0.000
18152.820,28564.350,78196.380,157582.900,167383.900,-174078.500,165005.600,240818.200,283.000,1.000,1.884,0.000
17915.270,28211.650,77061.480,155711.900,166040.200,-172697.300,163666.900,241297.500,284.000,1.000,8.884,0.000
17681.830,27862.740,75927.410,153878.800,164698.700,-171323.900,162332.300,241770.000,285.000,1.000,4.211,0.000
17449.280,27514.560,74796.590,152077.400,163360.400,-169951.100,161001.300,242228.500,286.000,1.000,0.012,0.000
17216.170,27164.790,73672.990,150273.800,162026.900,-168580.100,159673.500,242671.200,287.000,1.000,9.819,0.000
16984.940,26815.250,72556.560,148465.800,160696.600,-167214.700,158348.200,243104.200,288.000,1.000,7.097,0.000
16756.320,26471.260,71445.840,146670.200,159367.900,-165852.000,157025.600,243530.500,289.000,1.000,5.910,0.000
16531.280,26136.530,70342.730,144893.700,158043.000,-164488.100,155707.700,243944.700,290.000,1.000,0.013,0.000
16307.580,25806.660,69248.570,143138.800,156724.500,-163125.500,154395.200,244346.800,291.000,1.000,1.962,0.000
16081.850,25475.300,68160.250,141398.900,155411.000,-161770.400,153087.000,244743.000,292.000,1.000,2.096,0.000
15854.410,25141.500,67074.730,139654.300,154100.100,-160423.900,151782.100,245133.500,293.000,1.000,3.871,0.000
15624.720,24804.370,65989.170,137899.600,152791.400,-159079.100,150480.200,245508.700,294.000,1.000,9.022,0.000
15393.390,24468.720,64906.970,136166.400,151485.800,-157713.900,149181.000,245872.500,295.000,1.000,4.043,0.000
15163.010,24137.790,63830.620,134466.700,150182.000,-156091.800,147884.800,246233.700,296.000,1.000,0.017,0.000
14932.640,23806.360,62756.640,132762.700,148878.200,-153664.900,146592.200,246587.100,297.000,1.000,13.982,0.000
14700.510,23471.770,61683.360,131037.000,147577.400,-150213.000,145304.600,246925.600,298.000,1.000,0.017,0.000
14471.080,23140.510,60617.540,129335.100,146284.300,-146246.800,144022.700,247257.000,299.000,1.000,2.139,0.000
14245.640,22814.770,59560.530,127680.800,144998.300,-142333.700,142745.100,247585.600,300.000,1.000,0.016,0.000
14018.460,22484.430,58503.370,126020.400,143715.100,-138588.500,141469.000,247898.700,301.000,1.000,1.888,0.000
13788.090,22143.120,57443.020,124316.500,142433.200,-134915.400,140194.200,248190.600,302.000,1.000,16.954,0.000
13558.710,21799.270,56386.640,122618.100,141154.200,-131261.900,138922.800,248471.900,303.000,1.000,0.018,0.000
13334.350,21465.270,55341.920,120976.800,139880.700,-127617.300,137656.600,248753.200,304.000,1.000,2.548,0.000
13114.140,21142.160,54307.520,119357.900,138614.600,-123974.700,136396.800,249031.600,305.000,1.000,0.015,0.000
12893.550,20819.760,53274.980,117705.200,137352.400,-120333.900,135141.000,249297.500,306.000,1.000,4.320,0.000
12671.260,20490.790,52240.430,116040.300,136089.400,-116641.900,133885.300,249546.200,307.000,1.000,10.672,0.000
12447.950,20156.400,51207.380,114418.800,134829.200,-112827.000,132631.400,249784.100,308.000,1.000,0.011,0.000
12223.390,19817.420,50177.400,112820.300,133575.900,-108938.600,131383.000,250014.000,309.000,1.000,4.345,0.000
11999.160,19478.690,49153.260,111190.900,132328.000,-105074.200,130139.700,250239.200,310.000,1.000,2.527,0.000
11777.400,19145.230,48134.770,109545.400,131082.900,-101263.700,128899.700,250457.600,311.000,1.000,2.450,0.000
11558.460,18817.240,47119.610,107941.800,129839.700,-97489.410,127662.400,250665.000,312.000,1.000,2.582,0.000
11343.570,18495.890,46110.480,106374.200,128599.600,-93729.770,126428.300,250863.000,313.000,1.000,7.432,0.000
11134.230,18185.110,45114.270,104790.500,127364.800,-89984.340,125198.700,251058.900,314.000,1.000,3.041,0.000
10926.420,17879.040,44125.680,103187.700,126134.600,-86264.790,123973.300,251247.900,315.000,1.000,0.011,0.000
10714.900,17568.670,43135.310,101616.100,124906.500,-82565.670,122750.800,251424.200,316.000,1.000,14.020,0.000
10501.460,17255.540,42146.300,100082.800,123681.200,-78877.720,121531.400,251592.500,317.000,1.000,0.013,0.000
10291.740,16946.080,41166.180,98534.690,122461.300,-75217.040,120316.600,251756.900,318.000,1.000,2.996,0.000
10085.180,16640.000,40191.800,96953.120,121246.600,-71595.820,119106.400,251911.900,319.000,1.000,0.011,0.000
9875.472,16334.220,39217.450,95322.650,120034.700,-67988.630,117899.600,252058.300,320.000,1.000,0.004,0.000
9659.840,16023.440,38237.210,93600.860,118824.600,-64382.780,116695.100,252196.200,321.000,1.000,3.441,0.000
9441.863,15704.760,37248.800,91897.180,117617.000,-60811.850,115492.600,252319.200,322.000,1.000,4.029,0.000
9226.059,15384.170,36258.580,90377.190,116413.900,-57293.650,114294.200,252426.800,323.000,1.000,13.597,0.000
9012.838,15068.690,35274.380,89047.920,115216.100,-53792.040,113101.400,252527.500,324.000,1.000,13.957,0.000
8800.610,14758.370,34300.700,87826.380,114021.800,-50280.140,111912.700,252626.100,325.000,1.000,0.013,0.000
8590.879,14451.010,33338.770,86591.670,112830.800,-46789.190,110727.000,252717.700,326.000,1.000,0.004,0.000
8383.779,14144.600,32383.960,85256.240,111643.600,-43351.480,109544.700,252798.200,327.000,1.000,2.424,0.000
8178.072,13839.790,31432.980,83885.540,110459.600,-39938.360,108365.800,252872.500,328.000,1.000,25.020,0.000
7973.759,13537.000,30485.540,82585.280,109277.800,-36514.120,107189.600,252943.100,329.000,1.000,2.429,0.000
7767.250,13228.460,29536.480,81314.660,108098.600,-33108.780,106015.700,252997.800,330.000,1.000,2.529,0.000
7556.313,12910.840,28585.180,79974.110,106922.500,-29762.960,104844.200,253033.300,331.000,1.000,2.435,0.000
7345.741,12594.290,27640.060,78590.680,105750.400,-26449.390,103676.600,253060.900,332.000,1.000,2.590,0.000
7139.164,12288.270,26706.220,77264.960,104582.400,-23118.750,102514.000,253089.000,333.000,1.000,2.443,0.000
6937.673,11989.700,25779.620,75987.930,103417.900,-19787.980,101355.200,253111.800,334.000,1.000,2.540,0.000
6740.324,11693.140,24856.880,74669.270,102257.500,-16506.280,100200.000,253125.000,335.000,1.000,2.428,0.000
6543.574,11395.920,23936.240,73302.880,101101.900,-13265.860,99049.190,253129.600,336.000,1.000,2.562,0.000
6346.854,11098.480,23019.430,71971.060,99950.200,-10019.620,97902.710,253129.700,337.000,1.000,6.500,0.000
6151.030,10800.280,22107.650,70686.680,98802.120,-6771.923,96760.090,253123.300,338.000,1.000,5.174,0.000
5955.004,10500.060,21199.600,69375.400,97656.960,-3570.402,95620.200,253104.600,339.000,1.000,0.012,0.000
5756.361,10197.520,20290.800,68013.480,96513.910,-418.292,94482.130,253069.400,340.000,1.000,7.812,0.000
5556.393,9897.065,19383.240,66669.670,95374.480,2733.567,93347.730,253026.900,341.000,1.000,0.013,0.000
5358.801,9602.213,18483.070,65375.140,94239.660,5896.189,92218.150,252983.400,342.000,1.000,1.491,0.000
5163.235,9311.438,17590.490,64073.680,93108.090,9024.610,91091.550,252933.800,343.000,1.000,2.599,0.000
4966.166,9018.854,16698.640,62729.430,91978.790,12102.150,89967.000,252870.100,344.000,1.000,4.983,0.000
4767.068,8721.806,15806.710,61388.250,90852.260,15168.810,88845.480,252798.100,345.000,1.000,2.412,0.000
4567.792,8423.165,14918.270,60085.450,89729.330,18243.380,87727.890,252724.800,346.000,1.000,2.593,0.000
4371.693,8129.126,14035.660,58787.660,88610.730,21292.370,86614.720,252647.900,347.000,1.000,3.083,0.000
4181.683,7842.869,13160.870,57466.410,87496.860,24300.300,85506.020,252566.900,348.000,1.000,0.014,0.000
3994.033,7559.699,12292.370,56148.020,86386.870,27297.730,84400.880,252482.500,349.000,1.000,1.902,0.000
3803.448,7273.949,11424.900,54857.250,85279.690,30299.940,83298.660,252390.700,350.000,1.000,6.427,0.000
3611.061,6987.707,10558.620,53573.760,84175.860,33279.830,82200.140,252290.200,351.000,1.000,3.068,0.000
3419.346,6704.856,9698.187,52275.650,83075.340,36220.230,81104.840,252188.500,352.000,1.000,0.012,0.000
3228.481,6422.747,8841.842,50976.140,81977.260,39144.140,80011.630,252085.800,353.000,1.000,1.900,0.000
3039.278,6137.779,7985.639,49693.580,80882.100,42068.900,78921.200,251973.600,354.000,1.000,14.544,0.000
2854.000,5853.631,7134.011,48419.520,79790.690,44974.770,77834.770,251850.300,355.000,1.000,0.019,0.000
2671.789,5577.430,6293.523,47141.120,78702.520,47843.920,76751.830,251727.200,356.000,1.000,2.120,0.000
2489.195,5305.312,5459.138,45860.450,77617.090,50689.610,75671.630,251602.500,357.000,1.000,0.011,0.000
2306.389,5029.416,4624.930,44589.390,76535.410,53532.660,74594.950,251467.100,358.000,1.000,5.787,0.000
2124.414,4751.559,3792.901,43327.630,75457.990,56366.410,73522.340,251321.500,359.000,1.000,9.189,0.000
1943.301,4480.912,2969.219,42069.260,74384.840,59173.140,72454.040,251177.100,360.000,1.000,0.027,0.000
1763.796,4215.696,2150.733,40811.400,73315.470,61954.600,71389.810,251030.700,361.000,1.000,4.302,0.000
1585.134,3946.025,1329.563,39555.820,72248.910,64724.430,70328.500,250870.100,362.000,1.000,2.610,0.000
1405.271,3671.550,507.463,38303.600,71184.860,67480.490,69269.520,250696.900,363.000,1.000,3.843,0.000
1223.490,3398.881,-307.027,37056.440,70123.740,70209.200,68213.230,250525.000,364.000,1.000,9.227,0.000
1041.286,3126.754,-1115.179,35810.730,69065.400,72910.800,67159.630,250352.800,365.000,1.000,0.018,0.000
862.882,2855.102,-1919.241,34567.090,68010.070,75603.270,66109.140,250172.800,366.000,1.000,1.847,0.000
687.249,2589.034,-2717.267,33330.840,66958.850,78291.380,65063.030,249988.100,367.000,1.000,8.924,0.000
506.641,2327.072,-3511.118,32102.760,65911.540,80958.320,64021.000,249802.800,368.000,1.000,2.997,0.000
319.879,2058.361,-4308.415,30874.510,64866.600,83594.710,62981.260,249607.500,369.000,1.000,0.016,0.000
135.556,1784.279,-5107.480,29645.930,63824.330,86215.780,61944.070,249400.000,370.000,1.000,1.949,0.000
-44.764,1512.948,-5902.795,28422.960,62785.840,88831.050,60910.540,249187.900,371.000,1.000,8.635,0.000
-225.854,1242.464,-6694.838,27206.250,61751.020,91427.250,59880.700,248972.800,372.000,1.000,3.414,0.000
-405.366,974.414,-7482.135,25997.630,60720.150,94000.470,58854.860,248756.200,373.000,1.000,0.018,0.000
-583.482,710.733,-8264.608,24796.170,59693.570,96562.780,57833.340,248539.100,374.000,1.000,6.487,0.000
-764.631,444.248,-9048.104,23593.920,58670.250,99113.750,56815.060,248314.900,375.000,1.000,6.462,0.000
-946.182,174.557,-9834.123,22389.030,57649.010,101640.800,55798.730,248077.500,376.000,1.000,4.166,0.000
-1123.039,-90.000,-10614.790,21191.910,56630.710,104144.400,54785.410,247835.300,377.000,1.000,0.013,0.000
-1295.224,-347.918,-11384.460,20006.610,55616.750,106636.900,53776.620,247597.300,378.000,1.000,8.361,0.000
-1467.717,-605.577,-12148.690,18824.510,54605.670,109119.500,52770.700,247358.800,379.000,1.000,4.479,0.000
-1640.993,-865.198,-12913.840,17640.500,53596.300,111581.200,51766.300,247109.800,380.000,1.000,0.014,0.000
-1810.966,-1119.247,-13674.580,16464.700,52590.630,114021.600,50765.350,246855.100,381.000,1.000,12.961,0.000
-1979.056,-1367.591,-14427.230,15299.350,51589.530,116449.200,49768.960,246600.100,382.000,1.000,3.024,0.000
-2146.121,-1615.695,-15173.470,14138.470,50591.950,118868.700,48776.420,246344.800,383.000,1.000,0.019,0.000
-2309.236,-1861.442,-15914.790,12980.580,49597.530,121275.800,47787.160,246088.000,384.000,1.000,1.901,0.000
-2470.788,-2103.125,-16653.240,11830.390,48606.100,123664.400,46800.640,245828.800,385.000,1.000,3.574,0.000
-2636.631,-2348.372,-17393.150,10685.520,47617.040,126033.400,45816.400,245562.100,386.000,1.000,4.502,0.000
-2807.094,-2598.436,-18132.430,9543.748,46630.660,128387.500,44834.970,245290.500,387.000,1.000,0.014,0.000
-2978.456,-2847.766,-18868.780,8403.958,45647.110,130726.300,43856.300,245016.700,388.000,1.000,8.103,0.000
-3148.181,-3096.788,-19604.870,7264.995,44665.550,133042.500,42879.500,244733.700,389.000,1.000,6.888,0.000
-3315.443,-3346.015,-20339.850,6129.154,43686.930,135339.000,41905.680,244439.800,390.000,1.000,0.012,0.000
-3479.842,-3586.702,-21064.290,5005.462,42713.810,137630.400,40937.550,244151.400,391.000,1.000,1.946,0.000
-3642.911,-3819.905,-21778.990,3892.235,41745.820,139917.300,39974.710,243873.300,392.000,1.000,11.145,0.000
-3806.450,-4058.442,-22495.180,2780.205,40780.580,142185.600,39014.500,243588.600,393.000,1.000,3.085,0.000
-3969.198,-4304.582,-23215.530,1667.511,39817.300,144430.200,38056.060,243288.100,394.000,1.000,0.011,0.000
-4129.803,-4546.263,-23930.050,561.809,38856.720,146661.600,37100.280,242985.100,395.000,1.000,1.864,0.000
-4289.647,-4779.588,-24635.180,-535.035,37899.550,148884.800,36147.980,242689.200,396.000,1.000,16.934,0.000
-4449.736,-5015.490,-25339.280,-1629.649,36946.210,151092.100,35199.530,242388.800,397.000,1.000,0.012,0.000
-4610.446,-5258.966,-26045.930,-2723.259,35996.880,153279.800,34255.080,242076.000,398.000,1.000,7.053,0.000
-4770.174,-5499.322,-26746.720,-3809.559,35050.650,155455.000,33313.770,241761.500,399.000,1.000,0.011,0.000
-4928.104,-5732.202,-27439.450,-4888.949,34106.530,157619.900,32374.520,241451.200,400.000,1.000,0.004,0.000
-5086.674,-5967.780,-28133.580,-5969.757,33165.090,159766.900,31437.860,241132.800,401.000,1.000,2.889,0.000
-5245.913,-6209.590,-28830.160,-7050.131,32227.440,161894.400,30505.080,240803.000,402.000,1.000,0.008,0.000
-5403.841,-6450.964,-29521.910,-8125.345,31293.150,164006.200,29575.680,240470.700,403.000,1.000,1.947,0.000
-5559.044,-6686.168,-30205.800,-9195.394,30361.320,166103.800,28648.460,240140.700,404.000,1.000,11.054,0.000
-5711.456,-6916.182,-30885.600,-10261.130,29432.470,168187.200,27724.200,239807.800,405.000,1.000,13.211,0.000
-5863.194,-7141.625,-31562.300,-11317.420,28508.070,170259.000,26804.730,239472.300,406.000,1.000,0.018,0.000
-6015.347,-7364.351,-32234.940,-12365.400,27587.600,172318.500,25889.330,239135.900,407.000,1.000,2.388,0.000
-6168.155,-7589.686,-32904.000,-13411.690,26669.020,174362.400,24975.730,238797.200,408.000,1.000,0.015,0.000
-6322.232,-7819.215,-33571.820,-14459.730,25752.360,176389.800,24063.980,238452.700,409.000,1.000,4.333,0.000
-6476.929,-8049.552,-34238.450,-15504.220,24839.220,178403.200,23155.660,238103.500,410.000,1.000,2.552,0.000
-6631.445,-8280.384,-34904.020,-16544.410,23930.060,180401.100,22251.260,237749.000,411.000,1.000,6.443,0.000
-6784.665,-8510.257,-35566.690,-17582.600,23023.860,182380.600,21349.730,237389.600,412.000,1.000,4.264,0.000
-6937.317,-8738.008,-36225.320,-18619.300,22119.040,184343.300,20449.610,237026.600,413.000,1.000,0.019,0.000
-7091.694,-8965.421,-36882.270,-19651.780,21215.770,186291.600,19551.250,236659.100,414.000,1.000,5.725,0.000
-7246.481,-9193.227,-37539.240,-20679.090,20316.340,188225.800,18656.770,236284.600,415.000,1.000,6.634,0.000
-7397.576,-9415.497,-38189.120,-21697.070,19422.450,190149.800,17767.590,235912.300,416.000,1.000,0.011,0.000
-7545.773,-9631.873,-38830.020,-22706.000,18533.310,192065.100,16883.130,235546.900,417.000,1.000,15.019,0.000
-7694.706,-9851.096,-39470.510,-23712.720,17647.050,193965.500,16001.760,235176.100,418.000,1.000,0.013,0.000
-7844.798,-10078.980,-40116.360,-24723.790,16761.930,195843.500,15121.450,234789.000,419.000,1.000,2.537,0.000
-7995.451,-10309.810,-40761.630,-25735.110,15877.780,197701.200,14241.870,234395.200,420.000,1.000,0.044,0.000
-8146.497,-10534.230,-41398.390,-26736.580,14996.570,199549.500,13365.340,234008.700,421.000,1.000,2.384,0.000
-8297.674,-10753.780,-42029.080,-27727.130,14119.540,201392.700,12493.230,233624.500,422.000,1.000,0.018,0.000
-8449.318,-10976.070,-42660.890,-28713.600,13245.490,203223.800,11624.100,233231.500,423.000,1.000,10.892,0.000
-8599.723,-11198.960,-43291.950,-29698.260,12374.060,205038.100,10757.490,232832.300,424.000,1.000,6.681,0.000
-8746.847,-11414.480,-43915.310,-30676.120,11506.840,206840.400,9895.089,232436.500,425.000,1.000,0.014,0.000
-8893.324,-11626.720,-44533.990,-31647.930,10643.510,208631.400,9036.633,232040.000,426.000,1.000,8.797,0.000
-9041.219,-11843.350,-45152.790,-32616.530,9782.098,210407.500,8180.121,231637.600,427.000,1.000,0.012,0.000
-9188.243,-12060.930,-45768.570,-33581.390,8922.450,212169.700,7325.368,231233.700,428.000,1.000,6.128,0.000
-9332.742,-12275.400,-46378.670,-34541.280,8065.879,213918.900,6473.532,230832.000,429.000,1.000,0.022,0.000
-9473.460,-12488.170,-46985.050,-35497.480,7213.802,215654.700,5625.945,230427.000,430.000,1.000,11.438,0.000
-9610.300,-12697.610,-47585.880,-36445.810,6365.863,217380.900,4782.535,230020.200,431.000,1.000,0.021,0.000
-9746.896,-12904.210,-48181.040,-37385.610,5520.424,219097.300,3941.879,229613.100,432.000,1.000,2.336,0.000
-9886.521,-13111.940,-48775.440,-38322.520,4677.323,220798.500,3103.630,229201.700,433.000,1.000,0.015,0.000
-10027.490,-13321.410,-49372.280,-39260.170,3836.637,222483.000,2267.700,228783.900,434.000,1.000,7.971,0.000
-10167.860,-13529.450,-49968.300,-40193.210,2998.226,224155.400,1434.028,228364.800,435.000,1.000,4.627,0.000
-10308.850,-13737.790,-50563.710,-41124.090,2162.572,225813.700,603.082,227940.000,436.000,1.000,0.018,0.000
-10448.960,-13945.290,-51156.530,-42053.860,1330.139,227456.500,-224.710,227509.200,437.000,1.000,10.128,0.000
-10587.100,-14151.310,-51743.860,-42978.280,500.594,229087.500,-1049.625,227078.900,438.000,1.000,3.130,0.000
-10725.970,-14358.900,-52326.140,-43895.310,-326.295,230707.500,-1871.932,226651.000,439.000,1.000,0.017,0.000
-10863.910,-14565.200,-52903.710,-44806.430,-1149.319,232316.800,-2690.436,226222.300,440.000,1.000,2.412,0.000
-10997.300,-14767.890,-53477.850,-45714.160,-1967.992,233913.800,-3504.554,225790.700,441.000,1.000,0.020,0.000
-11129.790,-14973.140,-54053.290,-46622.940,-2784.699,235492.800,-4316.569,225351.500,442.000,1.000,13.165,0.000
-11263.920,-15178.560,-54626.840,-47527.240,-3600.044,237058.300,-5127.183,224906.600,443.000,1.000,2.570,0.000
-11399.340,-15378.310,-55194.360,-48421.090,-4412.063,238617.800,-5934.582,224461.700,444.000,1.000,2.401,0.000
-11534.730,-15574.710,-55756.340,-49306.570,-5219.626,240170.000,-6737.565,224019.900,445.000,1.000,6.146,0.000
-11668.970,-15772.940,-56315.860,-50190.090,-6023.625,241708.000,-7536.893,223577.600,446.000,1.000,7.405,0.000
-11803.420,-15975.790,-56877.500,-51078.070,-6825.842,243226.700,-8334.412,223125.300,447.000,1.000,2.559,0.000
-11936.650,-16177.880,-57438.300,-51965.250,-7625.973,244731.400,-9129.890,222665.500,448.000,1.000,3.094,0.000
-12068.480,-16374.910,-57994.040,-52844.520,-8423.103,246228.200,-9922.312,222206.200,449.000,1.000,0.013,0.000
-12200.830,-16571.340,-58546.250,-53717.250,-9217.188,247714.500,-10711.720,221746.300,450.000,1.000,1.773,0.000
-12330.910,-16769.810,-59095.660,-54587.140,-10007.990,249187.000,-11497.990,221281.200,451.000,1.000,6.561,0.000
-12455.820,-16966.080,-59639.460,-55451.300,-10795.520,250649.400,-12281.150,220815.300,452.000,1.000,4.075,0.000
-12580.070,-17159.520,-60178.570,-56308.890,-11579.910,252103.100,-13061.240,220351.300,453.000,1.000,0.010,0.000
-12709.380,-17354.580,-60717.590,-57162.170,-12361.470,253544.900,-13838.220,219885.900,454.000,1.000,8.377,0.000
-12840.620,-17551.720,-61257.630,-58012.340,-13140.200,254973.600,-14612.030,219416.300,455.000,1.000,8.024,0.000
-12968.190,-17745.510,-61793.550,-58857.290,-13915.390,256391.200,-15382.410,218947.300,456.000,1.000,0.011,0.000
-13091.880,-17935.150,-62324.440,-59699.430,-14687.410,257796.200,-16149.820,218478.000,457.000,1.000,1.923,0.000
-13214.000,-18125.340,-62852.690,-60539.160,-15457.320,259186.800,-16915.150,218005.300,458.000,1.000,17.329,0.000
-13337.190,-18319.890,-63380.710,-61377.270,-16225.260,260563.200,-17678.650,217527.200,459.000,1.000,0.017,0.000
-13461.500,-18514.190,-63906.710,-62212.830,-16990.850,261927.900,-18439.760,217045.700,460.000,1.000,0.005,0.000
-13585.750,-18704.390,-64429.630,-63045.950,-17754.140,263281.500,-19198.340,216560.500,461.000,1.000,3.321,0.000
-13711.550,-18891.220,-64948.850,-63874.010,-18514.640,264623.700,-19954.110,216074.900,462.000,1.000,0.023,0.000
-13839.660,-19074.860,-65463.580,-64694.360,-19271.480,265957.700,-20706.450,215593.700,463.000,1.000,1.894,0.000
-13966.720,-19256.470,-65974.790,-65508.550,-20024.750,267283.000,-21455.310,215113.700,464.000,1.000,6.001,0.000
-14090.670,-19442.920,-66487.340,-66324.480,-20775.540,268591.900,-22201.500,214623.700,465.000,1.000,4.479,0.000
-14211.310,-19630.230,-66997.840,-67138.800,-21524.040,269885.800,-22945.290,214128.600,466.000,1.000,0.014,0.000
-14330.340,-19808.340,-67501.290,-67944.340,-22269.720,271173.000,-23686.600,213640.000,467.000,1.000,1.941,0.000
-14448.840,-19980.930,-68001.270,-68745.200,-23012.150,272452.700,-24424.680,213153.300,468.000,1.000,13.558,0.000
-14564.980,-20154.270,-68499.160,-69544.540,-23750.650,273722.700,-25158.540,212662.200,469.000,1.000,3.076,0.000
-14678.930,-20324.740,-68990.520,-70336.940,-24485.990,274984.300,-25889.270,212173.200,470.000,1.000,0.011,0.000
-14794.380,-20493.660,-69478.880,-71123.500,-25220.170,276232.900,-26619.050,211685.800,471.000,1.000,1.882,0.000
-14915.890,-20671.890,-69975.450,-71915.870,-25953.710,277460.500,-27348.140,211184.900,472.000,1.000,3.610,0.000
-15042.570,-20860.050,-70480.620,-72715.130,-26685.600,278669.800,-28075.320,210669.100,473.000,1.000,7.872,0.000
-15167.360,-21045.410,-70981.820,-73507.250,-27414.310,279872.700,-28799.350,210155.400,474.000,1.000,6.651,0.000
-15285.700,-21219.610,-71470.020,-74281.350,-28138.390,281075.400,-29519.030,209654.900,475.000,1.000,0.015,0.000
-15400.220,-21388.690,-71950.720,-75045.030,-28857.900,282272.800,-30234.150,209158.700,476.000,1.000,6.356,0.000
-15517.050,-21561.860,-72433.470,-75809.730,-29574.710,283456.400,-30946.560,208657.200,477.000,1.000,0.013,0.000
-15636.480,-21739.430,-72918.650,-76577.330,-30289.880,284624.200,-31657.430,208149.400,478.000,1.000,7.937,0.000
-15753.450,-21914.120,-73398.700,-77339.130,-31002.160,285782.200,-32365.310,207642.700,479.000,1.000,3.277,0.000
-15867.870,-22083.940,-73872.910,-78093.230,-31710.750,286933.200,-33069.260,207138.500,480.000,1.000,0.022,0.000
-15985.290,-22252.860,-74345.970,-78843.410,-32416.900,288073.900,-33770.820,206633.300,481.000,1.000,5.716,0.000
-16106.450,-22426.740,-74821.600,-79593.130,-33121.970,289201.300,-34471.640,206121.700,482.000,1.000,3.537,0.000
-16226.130,-22604.330,-75297.260,-80339.900,-33825.670,290317.500,-35171.030,205605.900,483.000,1.000,13.133,0.000
-16342.340,-22777.250,-75767.290,-81080.410,-34526.220,291426.500,-35867.100,205092.100,484.000,1.000,0.017,0.000
-16455.910,-22942.170,-76229.320,-81812.940,-35222.480,292529.300,-36558.940,204584.100,485.000,1.000,4.278,0.000
-16569.320,-23106.390,-76690.850,-82544.200,-35915.530,293619.900,-37247.610,204073.000,486.000,1.000,2.566,0.000
-16685.090,-23274.950,-77155.730,-83276.130,-36605.940,294696.400,-37933.700,203554.800,487.000,1.000,2.456,0.000
-16800.280,-23445.350,-77618.080,-84003.870,-37293.420,295763.100,-38616.970,203036.700,488.000,1.000,4.008,0.000
-16909.340,-23610.500,-78070.570,-84723.000,-37978.190,296823.700,-39297.460,202524.000,489.000,1.000,28.058,0.000
-17014.570,-23769.550,-78515.260,-85435.840,-38660.000,297876.700,-39974.840,202012.100,490.000,1.000,0.024,0.000
-17122.870,-23928.920,-78958.950,-86146.730,-39338.980,298919.100,-40649.270,201496.400,491.000,1.000,2.530,0.000
-17233.870,-24090.050,-79403.400,-86856.660,-40015.840,299950.400,-41321.610,200977.700,492.000,1.000,0.014,0.000
-17342.150,-24248.890,-79846.090,-87563.000,-40690.010,300971.700,-41991.370,200458.300,493.000,1.000,1.917,0.000
-17448.450,-24407.300,-80288.260,-88266.660,-41361.610,301982.100,-42658.540,199936.800,494.000,1.000,2.439,0.000
-17557.120,-24568.260,-80730.710,-88969.670,-42032.200,302980.500,-43324.640,199411.300,495.000,1.000,8.574,0.000
-17667.850,-24730.000,-81171.870,-89670.050,-42701.680,303968.100,-43989.690,198882.800,496.000,1.000,5.014,0.000
-17776.880,-24890.810,-81610.230,-90365.150,-43367.630,304946.300,-44651.290,198352.400,497.000,1.000,2.414,0.000
-17882.140,-25050.010,-82043.080,-91052.430,-44028.660,305917.800,-45307.990,197824.600,498.000,1.000,2.550,0.000
-17985.560,-25210.450,-82473.070,-91737.520,-44686.570,306878.800,-45961.560,197296.500,499.000,1.000,2.447,0.000
-18090.010,-25372.940,-82903.950,-92425.740,-45342.890,307824.400,-46613.530,196761.700,500.000,1.000,3.230,0.000
-18196.360,-25533.230,-83333.980,-93112.980,-45996.900,308757.800,-47263.220,196223.100,501.000,1.000,0.010,0.000
-18304.270,-25689.130,-83759.950,-93791.370,-46647.860,309685.200,-47909.940,195691.100,502.000,1.000,4.355,0.000
-18410.490,-25842.610,-84181.460,-94462.160,-47295.600,310607.600,-48553.480,195165.300,503.000,1.000,12.433,0.000
-18514.850,-25997.380,-84600.850,-95130.410,-47940.430,311522.200,-49194.070,194635.600,504.000,1.000,2.525,0.000
-18621.150,-26155.980,-85021.670,-95798.630,-48583.810,312424.900,-49833.240,194095.300,505.000,1.000,3.095,0.000
-18726.930,-26312.390,-85438.810,-96460.640,-49225.960,313316.800,-50471.120,193554.600,506.000,1.000,0.014,0.000
-18829.120,-26464.110,-85850.050,-97116.920,-49864.820,314199.200,-51105.640,193017.000,507.000,1.000,1.905,0.000
-18928.540,-26614.760,-86258.820,-97771.730,-50499.230,315071.200,-51735.690,192478.200,508.000,1.000,2.434,0.000
-19026.460,-26765.160,-86665.350,-98424.710,-51130.560,315933.800,-52362.590,191938.900,509.000,1.000,2.545,0.000
-19122.910,-26911.460,-87065.400,-99069.910,-51760.050,316790.700,-52987.660,191405.100,510.000,1.000,2.441,0.000
-19217.920,-27054.810,-87461.450,-99710.590,-52387.690,317639.200,-53610.940,190870.200,511.000,1.000,2.552,0.000
-19313.120,-27200.240,-87858.490,-100352.700,-53013.230,318474.600,-54232.120,190327.400,512.000,1.000,4.530,0.000
-19408.860,-27347.160,-88254.280,-100992.700,-53636.030,319299.900,-54850.630,189782.000,513.000,1.000,0.016,0.000
-19503.310,-27490.530,-88643.000,-101622.300,-54254.790,320121.300,-55465.210,189241.800,514.000,1.000,13.578,0.000
-19597.400,-27632.370,-89028.140,-102245.000,-54869.960,320937.100,-56076.120,188703.100,515.000,1.000,0.012,0.000
-19693.500,-27777.170,-89415.840,-102868.000,-55483.530,321742.800,-56685.360,188162.100,516.000,1.000,4.438,0.000
-19790.120,-27923.150,-89804.640,-103491.300,-56096.140,322537.100,-57293.750,187620.400,517.000,1.000,0.013,0.000
-19884.810,-28067.420,-90190.610,-104111.500,-56707.350,323320.000,-57900.860,187078.400,518.000,1.000,0.004,0.000
-19978.030,-28212.170,-90574.280,-104728.500,-57316.720,324091.700,-58506.210,186534.000,519.000,1.000,2.418,0.000
-20070.560,-28357.770,-90955.670,-105341.600,-57923.170,324854.800,-59108.550,185988.900,520.000,1.000,9.002,0.000
-20161.820,-28500.020,-91332.170,-105948.200,-58525.730,325612.500,-59706.730,185447.000,521.000,1.000,6.509,0.000
-20253.930,-28639.170,-91705.570,-106550.800,-59124.780,326362.200,-60301.360,184904.500,522.000,1.000,0.013,0.000
-20351.430,-28778.770,-92079.130,-107150.500,-59721.220,327101.900,-60893.540,184361.000,523.000,1.000,14.987,0.000
-20451.780,-28918.040,-92450.940,-107744.400,-60314.480,327835.300,-61482.590,183821.700,524.000,1.000,0.016,0.000
-20548.780,-29055.870,-92819.230,-108333.100,-60904.190,328564.000,-62068.150,183285.900,525.000,1.000,7.017,0.000
-20644.510,-29197.480,-93189.230,-108923.700,-61492.750,329280.900,-62652.750,182743.100,526.000,1.000,0.012,0.000
-20744.090,-29342.030,-93561.120,-109515.400,-62081.770,329982.700,-63237.820,182193.600,527.000,1.000,0.005,0.000
-20843.630,-29481.540,-93928.600,-110102.300,-62668.830,330675.800,-63820.820,181645.300,528.000,1.000,4.529,0.000
-20938.920,-29615.880,-94291.010,-110684.500,-63251.980,331363.000,-64399.800,181099.600,529.000,1.000,0.011,0.000
-21033.180,-29752.400,-94652.920,-111266.100,-63832.310,332041.500,-64975.800,180551.600,530.000,1.000,5.378,0.000
-21126.560,-29888.970,-95010.840,-111841.400,-64410.150,332714.200,-65549.290,180006.000,531.000,1.000,7.013,0.000
-21218.080,-30021.670,-95363.930,-112410.600,-64985.010,333380.800,-66120.110,179462.000,532.000,1.000,0.011,0.000
-21308.230,-30152.150,-95715.130,-112977.100,-65556.860,334039.300,-66688.120,178917.000,533.000,1.000,1.916,0.000
-21396.320,-30283.820,-96064.700,-113541.500,-66126.300,334689.500,-67253.530,178371.600,534.000,1.000,12.596,0.000
-21482.960,-30416.560,-96410.330,-114100.800,-66694.060,335331.800,-67817.050,177827.000,535.000,1.000,4.693,0.000
-21569.490,-30548.850,-96753.590,-114656.600,-67260.230,335965.700,-68379.060,177279.800,536.000,1.000,0.009,0.000
-21656.300,-30678.830,-97095.770,-115209.100,-67823.810,336591.800,-68938.620,176731.400,537.000,1.000,0.004,0.000
-21742.040,-30805.720,-97434.130,-115755.500,-68383.660,337213.000,-69494.480,176188.600,538.000,1.000,5.287,0.000
-21824.470,-30930.180,-97766.800,-116294.800,-68940.040,337829.700,-70046.780,175651.700,539.000,1.000,2.440,0.000
-21906.370,-31057.650,-98100.620,-116834.600,-69494.560,338434.400,-70597.130,175109.100,540.000,1.000,3.541,0.000
-21990.480,-31190.100,-98437.740,-117378.400,-70047.710,339024.100,-71146.120,174558.300,541.000,1.000,14.530,0.000
-22073.180,-31320.230,-98769.730,-117918.100,-70598.420,339607.200,-71692.700,174009.200,542.000,1.000,0.015,0.000
-22152.460,-31444.510,-99094.650,-118450.000,-71146.740,340186.800,-72236.800,173462.400,543.000,1.000,14.235,0.000
-22231.980,-31566.510,-99417.510,-118978.100,-71693.290,340758.400,-72779.120,172913.600,544.000,1.000,0.023,0.000
-22314.970,-31689.380,-99739.950,-119503.900,-72237.310,341321.800,-73319.050,172365.600,545.000,1.000,0.006,0.000
-22400.440,-31814.650,-100062.800,-120027.600,-72778.140,341877.300,-73855.980,171819.500,546.000,1.000,2.631,0.000
-22485.910,-31940.080,-100385.800,-120550.000,-73316.390,342424.300,-74390.390,171271.400,547.000,1.000,2.551,0.000
-22570.600,-32059.640,-100703.900,-121064.500,-73852.080,342967.900,-74922.150,170727.200,548.000,1.000,2.452,0.000
-22656.470,-32176.890,-101019.400,-121572.300,-74385.410,343507.900,-75451.280,170186.800,549.000,1.000,2.125,0.000
-22746.050,-32302.010,-101341.400,-122084.400,-74917.960,344033.300,-75979.540,169638.300,550.000,1.000,7.926,0.000
-22836.570,-32432.830,-101667.900,-122601.900,-75449.170,344542.300,-76506.790,169080.200,551.000,1.000,2.500,0.000
-22925.020,-32558.190,-101988.000,-123113.000,-75976.730,345046.500,-77030.690,168526.400,552.000,1.000,2.430,0.000
-23012.840,-32677.530,-102302.600,-123617.100,-76501.150,345547.900,-77551.280,167977.800,553.000,1.000,6.659,0.000
-23098.960,-32796.360,-102615.800,-124119.600,-77024.000,346041.100,-78070.000,167428.000,554.000,1.000,0.015,0.000
-23180.430,-32915.180,-102925.200,-124620.000,-77544.480,346526.300,-78586.420,166877.000,555.000,1.000,1.909,0.000
-23258.180,-33029.540,-103226.800,-125111.700,-78061.300,347009.000,-79099.420,166331.300,556.000,1.000,14.012,0.000
-23334.870,-33142.900,-103526.000,-125599.200,-78575.430,347486.300,-79609.760,165785.400,557.000,1.000,3.133,0.000
-23409.430,-33258.790,-103826.700,-126087.600,-79087.820,347953.100,-80118.160,165233.300,558.000,1.000,0.036,0.000
-23481.280,-33373.660,-104125.500,-126574.500,-79598.060,348409.600,-80624.160,164678.800,559.000,1.000,1.802,0.000
-23555.770,-33488.920,-104422.500,-127058.600,-80106.570,348855.900,-81128.380,164123.400,560.000,1.000,2.437,0.000
-23636.140,-33612.200,-104723.300,-127546.100,-80613.800,349289.400,-81631.490,163559.700,561.000,1.000,8.569,0.000
-23717.180,-33739.770,-105023.600,-128034.700,-81118.210,349714.300,-82132.020,162991.700,562.000,1.000,3.115,0.000
-23794.330,-33859.570,-105314.800,-128516.700,-81618.840,350137.400,-82628.910,162430.200,563.000,1.000,0.015,0.000
-23866.390,-33969.160,-105598.100,-128991.600,-82116.950,350557.400,-83123.030,161873.600,564.000,1.000,1.873,0.000
-23932.470,-34076.410,-105878.800,-129462.900,-82613.300,350969.700,-83615.200,161314.400,565.000,1.000,16.461,0.000
-23997.320,-34186.460,-106158.700,-129930.800,-83107.300,351374.300,-84105.290,160753.400,566.000,1.000,3.034,0.000
-24069.540,-34300.260,-106440.600,-130398.400,-83599.390,351769.300,-84593.660,160191.100,567.000,1.000,0.015,0.000
-24147.380,-34415.690,-106724.400,-130866.400,-84089.660,352154.800,-85080.250,159626.300,568.000,1.000,2.566,0.000
-24222.020,-34528.540,-107004.900,-131329.100,-84577.200,352534.900,-85564.060,159063.300,569.000,1.000,0.011,0.000
-24292.110,-34639.220,-107281.900,-131787.100,-85062.520,352908.500,-86045.520,158502.300,570.000,1.000,4.342,0.000
-24362.500,-34752.050,-107558.100,-132244.000,-85546.480,353273.100,-86525.590,157939.800,571.000,1.000,3.561,0.000
-24434.570,-34866.590,-107831.700,-132698.000,-86027.770,353631.200,-87003.090,157376.600,572.000,1.000,4.017,0.000
-24505.780,-34975.180,-108097.100,-133141.300,-86504.970,353988.200,-87476.450,156820.600,573.000,1.000,8.487,0.000
-24575.580,-35076.760,-108355.900,-133576.200,-86978.950,354343.200,-87946.450,156271.400,574.000,1.000,16.247,0.000
-24647.460,-35180.030,-108616.800,-134013.500,-87451.740,354687.400,-88415.230,155718.600,575.000,1.000,0.016,0.000
-24723.300,-35288.910,-108884.100,-134457.000,-87924.060,355016.600,-88883.550,155156.600,576.000,1.000,0.004,0.000
-24799.580,-35396.460,-109151.400,-134897.100,-88394.300,355338.400,-89349.760,154596.000,577.000,1.000,3.324,0.000
-24871.970,-35500.220,-109414.700,-135331.100,-88861.210,355657.800,-89812.730,154038.600,578.000,1.000,0.015,0.000
-24940.690,-35604.320,-109674.700,-135761.100,-89325.300,355973.000,-90272.970,153479.900,579.000,1.000,2.448,0.000
-25009.980,-35711.570,-109933.300,-136188.800,-89787.500,356281.500,-90731.370,152920.000,580.000,1.000,0.026,0.000
-25081.700,-35820.010,-110190.600,-136614.500,-90248.450,356580.500,-91188.550,152361.800,581.000,1.000,22.903,0.000
-25152.500,-35926.400,-110445.800,-137038.600,-90707.900,356870.100,-91644.230,151803.200,582.000,1.000,3.648,0.000
-25219.040,-36026.550,-110696.100,-137457.600,-91164.460,357156.500,-92096.950,151246.400,583.000,1.000,0.013,0.000
-25283.920,-36122.860,-110943.400,-137871.800,-91618.160,357440.200,-92546.770,150692.000,584.000,1.000,0.005,0.000
-25351.040,-36221.510,-111192.000,-138284.600,-92070.220,357715.700,-92995.100,150135.500,585.000,1.000,5.951,0.000
-25419.650,-36324.280,-111442.800,-138698.900,-92521.070,357979.400,-93442.310,149573.000,586.000,1.000,0.015,0.000
-25486.210,-36427.540,-111691.000,-139110.500,-92970.000,358236.400,-93887.540,149010.900,587.000,1.000,4.354,0.000
-25550.480,-36528.390,-111933.500,-139516.400,-93416.190,358491.500,-94330.040,148455.300,588.000,1.000,2.519,0.000
-25614.120,-36627.110,-112172.600,-139919.400,-93859.800,358742.200,-94769.990,147902.200,589.000,1.000,2.436,0.000
-25677.000,-36724.610,-112410.000,-140320.800,-94300.880,358986.400,-95207.380,147347.100,590.000,1.000,2.567,0.000
-25741.060,-36819.170,-112645.700,-140717.600,-94738.930,359226.500,-95641.570,146793.700,591.000,1.000,3.434,0.000
-25808.560,-36911.500,-112881.800,-141109.400,-95174.370,359462.700,-96073.060,146244.400,592.000,1.000,17.085,0.000
-25876.310,-37005.590,-113119.900,-141498.600,-95607.780,359691.400,-96502.660,145693.800,593.000,1.000,0.013,0.000
-25941.430,-37103.070,-113358.000,-141886.100,-96039.750,359910.400,-96930.950,145139.200,594.000,1.000,14.687,0.000
-26004.700,-37201.490,-113591.900,-142271.100,-96470.580,360120.900,-97358.190,144583.600,595.000,1.000,0.011,0.000
-26067.620,-37297.070,-113819.500,-142651.000,-96899.590,360326.900,-97783.490,144030.700,596.000,1.000,0.003,0.000
-26129.430,-37390.500,-114044.700,-143027.800,-97325.590,360529.100,-98205.650,143476.700,597.000,1.000,0.004,0.000
-26188.340,-37482.440,-114269.200,-143402.500,-97748.780,360726.100,-98624.980,142922.000,598.000,1.000,2.843,0.000
-26246.060,-37570.840,-114490.700,-143773.800,-98170.280,360918.000,-99042.640,142370.500,599.000,1.000,0.013,0.000
-26305.110,-37655.180,-114708.700,-144140.400,-98589.460,361105.700,-99458.100,141822.200,600.000,1.000,2.457,0.000
-26365.340,-37740.180,-114926.500,-144506.000,-99006.110,361286.700,-99871.120,141271.300,601.000,1.000,0.016,0.000
-26426.470,-37828.980,-115144.100,-144872.100,-99421.400,361458.400,-100282.800,140718.000,602.000,1.000,7.897,0.000
-26489.660,-37922.660,-115362.000,-145240.700,-99835.980,361618.900,-100693.800,140161.200,603.000,1.000,7.054,0.000
-26552.610,-38015.210,-115577.900,-145607.100,-100248.800,361772.900,-101102.900,139604.600,604.000,1.000,0.014,0.000
-26613.780,-38100.750,-115789.200,-145966.100,-100657.900,361926.700,-101508.200,139053.700,605.000,1.000,1.913,0.000
-26676.150,-38182.310,-115997.800,-146318.900,-101062.700,362079.500,-101909.100,138507.500,606.000,1.000,3.548,0.000
-26740.030,-38266.440,-116208.100,-146671.000,-101465.200,362225.900,-102308.100,137958.600,607.000,1.000,19.537,0.000
-26803.100,-38355.770,-116421.400,-147023.000,-101867.300,362362.400,-102706.900,137406.300,608.000,1.000,0.020,0.000
-26864.130,-38447.320,-116634.600,-147373.000,-102269.500,362489.500,-103105.800,136853.300,609.000,1.000,1.900,0.000
-26924.250,-38535.650,-116844.200,-147719.500,-102670.300,362611.200,-103502.900,136299.900,610.000,1.000,2.544,0.000
-26984.490,-38621.390,-117051.900,-148064.400,-103067.600,362728.700,-103896.400,135744.200,611.000,1.000,2.453,0.000
-27042.480,-38707.580,-117257.700,-148406.900,-103461.400,362841.300,-104286.500,135189.900,612.000,1.000,2.573,0.000
-27096.290,-38794.240,-117459.500,-148744.900,-103853.100,362948.800,-104674.700,134640.300,613.000,1.000,2.430,0.000
-27146.250,-38879.340,-117656.700,-149080.200,-104243.000,363051.800,-105061.000,134091.500,614.000,1.000,2.544,0.000
-27196.400,-38963.180,-117853.400,-149415.800,-104631.400,363148.700,-105446.000,133539.100,615.000,1.000,4.105,0.000
-27250.970,-39046.250,-118051.900,-149750.600,-105019.000,363238.300,-105830.100,132986.600,616.000,1.000,0.013,0.000
-27307.600,-39128.980,-118250.100,-150082.000,-105404.900,363322.200,-106212.600,132437.500,617.000,1.000,16.402,0.000
-27361.690,-39212.610,-118446.800,-150412.100,-105788.100,363399.700,-106592.100,131886.300,618.000,1.000,0.013,0.000
-27414.010,-39293.320,-118640.100,-150738.900,-106168.100,363473.300,-106968.300,131334.500,619.000,1.000,1.901,0.000
-27465.390,-39368.160,-118827.400,-151058.600,-106545.300,363546.100,-107341.800,130788.600,620.000,1.000,2.568,0.000
-27514.610,-39442.170,-119011.200,-151373.900,-106920.800,363615.000,-107713.800,130246.900,621.000,1.000,7.454,0.000
-27565.010,-39522.150,-119198.900,-151693.400,-107295.700,363674.300,-108085.200,129699.500,622.000,1.000,2.532,0.000
-27620.510,-39606.320,-119390.500,-152016.800,-107670.300,363723.800,-108456.400,129147.200,623.000,1.000,5.509,0.000
-27677.080,-39687.000,-119577.800,-152335.000,-108042.400,363769.700,-108825.100,128598.200,624.000,1.000,0.012,0.000
-27729.910,-39760.880,-119756.800,-152641.500,-108409.900,363815.800,-109189.200,128056.900,625.000,1.000,1.923,0.000
-27780.710,-39833.160,-119933.800,-152942.700,-108774.600,363858.500,-109550.300,127517.600,626.000,1.000,3.574,0.000
-27831.290,-39905.020,-120110.400,-153241.300,-109137.900,363897.200,-109909.600,126980.100,627.000,1.000,14.043,0.000
-27882.960,-39975.640,-120285.100,-153537.600,-109499.000,363933.200,-110267.000,126444.600,628.000,1.000,5.456,0.000
-27936.940,-40048.000,-120459.300,-153833.100,-109858.600,363963.100,-110623.000,125908.000,629.000,1.000,0.023,0.000
-27991.820,-40124.320,-120634.900,-154129.800,-110217.600,363984.300,-110978.700,125368.100,630.000,1.000,1.913,0.000
-28045.640,-40201.560,-120809.600,-154424.500,-110575.200,363999.400,-111332.900,124828.200,631.000,1.000,2.535,0.000
-28097.810,-40280.460,-120983.300,-154717.800,-110930.600,364008.900,-111684.900,124286.600,632.000,1.000,2.445,0.000
-28148.290,-40362.540,-121155.500,-155009.800,-111283.700,364012.200,-112034.500,123743.500,633.000,1.000,3.567,0.000
-28196.880,-40441.670,-121322.700,-155296.700,-111634.200,364012.600,-112381.300,123204.900,634.000,1.000,7.091,0.000
-28243.930,-40512.230,-121484.200,-155576.100,-111982.100,364013.000,-112725.700,122672.900,635.000,1.000,0.011,0.000
-28291.910,-40580.620,-121647.000,-155853.900,-112328.400,364009.700,-113068.500,122139.500,636.000,1.000,12.936,0.000
-28342.350,-40651.930,-121813.400,-156131.900,-112673.400,364000.200,-113409.900,121604.000,637.000,1.000,3.043,0.000
-28391.260,-40723.920,-121978.600,-156407.200,-113016.000,363986.600,-113748.900,121070.700,638.000,1.000,0.014,0.000
-28435.040,-40795.050,-122140.800,-156680.400,-113355.700,363968.100,-114085.100,120537.200,639.000,1.000,1.890,0.000
-28476.750,-40865.860,-122302.800,-156954.000,-113693.700,363941.600,-114420.100,119999.800,640.000,1.000,6.474,0.000
-28519.130,-40935.630,-122463.800,-157226.700,-114031.700,363907.400,-114754.800,119461.500,641.000,1.000,5.650,0.000
-28562.000,-41004.300,-122620.900,-157496.200,-114368.200,363868.100,-115087.800,118926.300,642.000,1.000,0.015,0.000
-28605.000,-41074.640,-122776.300,-157765.600,-114702.000,363821.100,-115418.200,118388.900,643.000,1.000,1.863,0.000
-28648.300,-41145.700,-122930.800,-158035.500,-115033.500,363766.900,-115746.400,117848.900,644.000,1.000,8.464,0.000
-28692.220,-41213.690,-123082.200,-158301.100,-115362.000,363711.300,-116071.600,117312.100,645.000,1.000,5.646,0.000
-28736.310,-41277.750,-123230.800,-158561.400,-115688.800,363654.300,-116394.900,116777.500,646.000,1.000,0.017,0.000
-28778.810,-41339.900,-123379.600,-158820.500,-116015.300,363591.800,-116717.800,116239.900,647.000,1.000,4.327,0.000
-28817.980,-41401.390,-123525.600,-159076.300,-116339.500,363525.400,-117038.800,115705.000,648.000,1.000,2.547,0.000
-28856.510,-41465.510,-123668.100,-159328.700,-116660.900,363454.800,-117357.200,115173.900,649.000,1.000,4.005,0.000
-28899.100,-41533.170,-123811.400,-159580.200,-116981.000,363377.100,-117674.000,114641.200,650.000,1.000,25.586,0.000
-28945.980,-41601.210,-123956.900,-159831.100,-117299.800,363292.700,-117989.500,114105.800,651.000,1.000,0.021,0.000
-28992.450,-41666.380,-124100.200,-160077.300,-117616.100,363206.000,-118302.400,113573.100,652.000,1.000,1.852,0.000
-29036.470,-41729.530,-124241.100,-160320.300,-117930.200,363116.900,-118613.000,113040.600,653.000,1.000,2.544,0.000
-29081.550,-41792.640,-124382.600,-160562.600,-118242.600,363024.000,-118921.900,112506.300,654.000,1.000,2.444,0.000
-29130.150,-41858.280,-124525.200,-160804.200,-118553.500,362926.000,-119229.400,111973.300,655.000,1.000,2.557,0.000
-29179.240,-41925.460,-124666.000,-161042.200,-118862.800,362823.300,-119535.600,111444.700,656.000,1.000,2.476,0.000
-29224.570,-41992.050,-124805.300,-161277.000,-119170.000,362716.200,-119839.400,110917.100,657.000,1.000,2.532,0.000
-29265.920,-42056.910,-124943.200,-161509.400,-119474.600,362604.800,-120140.600,110389.800,658.000,1.000,2.426,0.000
-29306.500,-42120.740,-125078.600,-161739.700,-119777.400,362490.300,-120440.100,109865.300,659.000,1.000,2.561,0.000
-29348.640,-42185.460,-125211.000,-161968.500,-120078.900,362372.200,-120738.400,109342.400,660.000,1.000,3.098,0.000
-29391.140,-42250.920,-125341.300,-162197.400,-120378.800,362248.500,-121034.800,108817.800,661.000,1.000,0.013,0.000
-29430.560,-42312.120,-125467.300,-162421.900,-120676.400,362121.900,-121328.800,108295.800,662.000,1.000,1.881,0.000
-29468.540,-42368.440,-125589.400,-162640.400,-120972.000,361992.700,-121621.000,107778.300,663.000,1.000,14.132,0.000
-29507.350,-42425.700,-125712.000,-162857.900,-121265.300,361856.900,-121911.300,107258.400,664.000,1.000,0.014,0.000
-29543.410,-42483.910,-125833.700,-163074.300,-121556.100,361715.800,-122199.000,106736.600,665.000,1.000,2.326,0.000
-29574.810,-42536.430,-125949.400,-163285.200,-121845.000,361574.500,-122484.500,106220.000,666.000,1.000,0.007,0.000
-29605.870,-42585.000,-126061.400,-163492.500,-122133.100,361430.700,-122769.000,105707.800,667.000,1.000,1.965,0.000
-29640.660,-42640.080,-126178.000,-163704.900,-122421.000,361277.500,-123053.400,105189.700,668.000,1.000,9.025,0.000
-29677.770,-42702.480,-126299.700,-163921.100,-122708.700,361114.800,-123337.800,104666.800,669.000,1.000,4.015,0.000
-29714.040,-42761.060,-126418.500,-164133.200,-122994.700,360948.600,-123620.800,104147.000,670.000,1.000,0.008,0.000
-29747.710,-42808.500,-126528.800,-164336.100,-123277.000,360783.800,-123900.300,103634.500,671.000,1.000,13.128,0.000
-29778.840,-42852.120,-126634.700,-164534.700,-123555.700,360618.100,-124176.000,103123.700,672.000,1.000,6.876,0.000
-29810.230,-42899.230,-126741.100,-164732.500,-123832.600,360446.400,-124449.500,102611.500,673.000,1.000,0.013,0.000
-29844.320,-42948.230,-126847.700,-164931.000,-124108.800,360267.400,-124722.300,102098.300,674.000,1.000,4.519,0.000
-29880.240,-42996.790,-126952.500,-165126.800,-124383.600,360085.500,-124993.900,101587.500,675.000,1.000,2.409,0.000
-29915.700,-43046.900,-127057.100,-165318.500,-124656.100,359903.100,-125263.300,101080.200,676.000,1.000,2.554,0.000
-29950.300,-43097.680,-127161.000,-165505.800,-124925.900,359719.100,-125530.100,100575.300,677.000,1.000,2.467,0.000
-29986.350,-43150.650,-127266.000,-165695.200,-125194.600,359528.100,-125795.600,100065.300,678.000,1.000,7.584,0.000
-30023.890,-43205.710,-127372.200,-165887.300,-125462.500,359328.400,-126060.500,99550.560,679.000,1.000,2.410,0.000
-30060.380,-43258.300,-127476.000,-166075.900,-125728.600,359125.300,-126323.800,99039.050,680.000,1.000,3.021,0.000
-30095.490,-43307.940,-127576.300,-166258.300,-125992.800,358921.700,-126584.900,98531.950,681.000,1.000,0.009,0.000
-30131.240,-43359.040,-127676.200,-166438.500,-126254.300,358716.200,-126843.400,98022.390,682.000,1.000,8.104,0.000
-30167.530,-43413.340,-127776.000,-166618.700,-126513.500,358506.300,-127099.500,97509.740,683.000,1.000,14.979,0.000
-30201.690,-43468.280,-127874.400,-166798.900,-126771.700,358289.900,-127354.400,96997.080,684.000,1.000,0.011,0.000
-30232.380,-43519.150,-127970.100,-166978.100,-127029.400,358068.300,-127608.600,96485.390,685.000,1.000,0.005,0.000
-30262.240,-43568.900,-128065.300,-167157.600,-127286.000,357841.700,-127861.800,95972.290,686.000,1.000,3.515,0.000
-30293.080,-43619.840,-128159.100,-167334.300,-127540.300,357611.900,-128112.900,95461.250,687.000,1.000,0.015,0.000
-30323.380,-43667.190,-128247.600,-167502.000,-127791.300,357383.000,-128360.800,94957.140,688.000,1.000,1.469,0.000
-30351.880,-43712.390,-128334.300,-167666.100,-128040.300,357151.500,-128606.500,94453.340,689.000,1.000,6.434,0.000
-30378.880,-43759.820,-128423.200,-167833.300,-128288.300,356913.600,-128851.400,93945.270,690.000,1.000,9.493,0.000
-30405.580,-43807.370,-128511.100,-168001.000,-128535.500,356671.900,-129095.800,93438.110,691.000,1.000,0.025,0.000
-30432.960,-43851.370,-128595.100,-168164.900,-128781.400,356428.300,-129338.800,92935.410,692.000,1.000,5.964,0.000
-30459.520,-43891.880,-128677.400,-168326.900,-129025.300,356180.100,-129579.300,92432.530,693.000,1.000,0.019,0.000
-30484.140,-43930.030,-128758.600,-168486.600,-129267.200,355926.800,-129817.900,91928.940,694.000,1.000,11.611,0.000
-30509.120,-43967.630,-128838.200,-168642.900,-129507.800,355670.200,-130055.500,91426.300,695.000,1.000,0.017,0.000
-30536.470,-44005.810,-128917.100,-168795.600,-129746.400,355411.800,-130291.300,90924.850,696.000,1.000,6.397,0.000
-30567.000,-44045.690,-128997.000,-168947.700,-129982.900,355150.500,-130525.000,90422.350,697.000,1.000,0.011,0.000
-30601.020,-44085.730,-129075.100,-169097.500,-130217.800,354886.900,-130756.900,89923.340,698.000,1.000,0.004,0.000
-30635.750,-44126.200,-129152.200,-169245.900,-130450.900,354619.800,-130987.000,89427.730,699.000,1.000,8.932,0.000
-30668.980,-44170.180,-129232.300,-169396.800,-130683.000,354345.700,-131216.100,88929.660,700.000,1.000,2.524,0.000
-30701.390,-44216.710,-129314.300,-169549.000,-130914.200,354065.800,-131444.200,88429.150,701.000,1.000,2.409,0.000
-30731.140,-44259.040,-129391.400,-169694.600,-131143.100,353785.500,-131670.000,87933.710,702.000,1.000,2.555,0.000
-30756.630,-44296.850,-129463.400,-169834.500,-131369.500,353503.500,-131893.400,87439.890,703.000,1.000,2.468,0.000
-30780.840,-44336.110,-129533.400,-169971.100,-131593.700,353217.800,-132114.700,86945.100,704.000,1.000,12.070,0.000
-30807.690,-44378.980,-129603.100,-170106.100,-131816.500,352929.400,-132334.500,86452.710,705.000,1.000,0.016,0.000
-30837.000,-44420.340,-129672.100,-170240.500,-132038.800,352638.900,-132553.800,85963.770,706.000,1.000,9.952,0.000
-30866.290,-44460.260,-129742.300,-170376.200,-132259.900,352344.300,-132771.900,85472.790,707.000,1.000,0.014,0.000
-30893.390,-44501.800,-129812.600,-170511.100,-132478.400,352045.300,-132987.300,84981.160,708.000,1.000,2.614,0.000
-30919.790,-44544.020,-129880.200,-170642.900,-132694.500,351742.600,-133200.400,84492.550,709.000,1.000,0.025,0.000
-30948.580,-44585.880,-129945.500,-170773.400,-132909.700,351435.700,-133412.700,84003.520,710.000,1.000,12.863,0.000
-30977.220,-44627.160,-130008.900,-170902.600,-133123.600,351125.500,-133623.600,83512.830,711.000,1.000,3.079,0.000
-31001.000,-44664.410,-130068.700,-171027.000,-133334.900,350815.000,-133831.900,83026.700,712.000,1.000,0.013,0.000
-31021.610,-44697.700,-130125.800,-171147.100,-133544.700,350503.500,-134038.700,82545.480,713.000,1.000,6.367,0.000
-31043.480,-44734.320,-130185.200,-171270.000,-133754.200,350185.500,-134245.200,82060.340,714.000,1.000,0.013,0.000
-31066.490,-44776.160,-130247.200,-171395.500,-133962.600,349860.000,-134451.000,81570.570,715.000,1.000,23.091,0.000
-31088.350,-44817.250,-130307.600,-171518.000,-134169.800,349531.400,-134655.300,81082.840,716.000,1.000,0.016,0.000
-31108.640,-44854.070,-130364.200,-171636.400,-134375.800,349200.500,-134858.300,80598.200,717.000,1.000,0.004,0.000
-31127.320,-44886.230,-130417.500,-171752.700,-134579.400,348866.900,-135058.800,80112.880,718.000,1.000,2.387,0.000
-31145.380,-44911.980,-130466.500,-171863.400,-134779.900,348533.600,-135256.400,79631.230,719.000,1.000,2.444,0.000
-31165.100,-44935.690,-130515.100,-171971.400,-134978.900,348198.300,-135452.500,79152.210,720.000,1.000,2.574,0.000
-31186.950,-44963.630,-130566.400,-172080.700,-135176.800,347856.700,-135647.600,78671.230,721.000,1.000,2.438,0.000
-31209.960,-44997.430,-130619.100,-172190.100,-135372.500,347510.700,-135840.500,78188.200,722.000,1.000,2.546,0.000
-31235.150,-45034.100,-130670.600,-172296.300,-135566.700,347163.600,-136031.800,77707.410,723.000,1.000,2.429,0.000
-31263.030,-45070.750,-130721.300,-172401.900,-135760.700,346813.900,-136222.800,77226.930,724.000,1.000,5.035,0.000
-31288.100,-45104.960,-130768.700,-172506.500,-135953.700,346461.600,-136412.900,76747.290,725.000,1.000,2.551,0.000
-31308.080,-45136.010,-130811.400,-172606.800,-136144.400,346109.400,-136600.700,76271.880,726.000,1.000,3.055,0.000
-31327.600,-45164.410,-130852.000,-172701.300,-136332.300,345757.800,-136785.800,75801.810,727.000,1.000,0.011,0.000
-31347.550,-45193.560,-130895.300,-172797.400,-136518.300,345400.700,-136969.000,75329.200,728.000,1.000,5.499,0.000
-31365.490,-45224.270,-130940.500,-172896.600,-136704.100,345035.700,-137152.100,74852.490,729.000,1.000,11.946,0.000
-31382.070,-45254.130,-130983.100,-172993.500,-136889.600,344666.700,-137334.800,74377.840,730.000,1.000,0.021,0.000
-31397.650,-45280.260,-131019.600,-173083.000,-137073.000,344298.100,-137515.400,73908.860,731.000,1.000,6.529,0.000
-31412.190,-45304.500,-131052.800,-173168.800,-137253.400,343928.700,-137692.800,73441.210,732.000,1.000,0.010,0.000
-31427.020,-45329.680,-131086.000,-173254.100,-137431.600,343556.100,-137868.200,72973.830,733.000,1.000,1.483,0.000
-31441.900,-45355.820,-131119.200,-173338.900,-137608.700,343180.100,-138042.500,72507.530,734.000,1.000,2.898,0.000
-31457.210,-45384.050,-131153.700,-173426.400,-137785.200,342797.900,-138216.300,72035.910,735.000,1.000,6.002,0.000
-31475.960,-45416.560,-131191.800,-173518.900,-137961.700,342407.300,-138390.100,71555.610,736.000,1.000,9.640,0.000
-31496.650,-45449.260,-131227.600,-173608.400,-138137.500,342015.400,-138562.900,71077.510,737.000,1.000,0.014,0.000
-31515.730,-45477.650,-131257.800,-173689.500,-138311.700,341625.900,-138734.000,70608.830,738.000,1.000,8.388,0.000
-31532.840,-45504.450,-131288.600,-173768.300,-138483.400,341233.300,-138902.900,70141.470,739.000,1.000,0.015,0.000
-31547.000,-45529.360,-131319.000,-173845.800,-138652.400,340838.000,-139069.100,69673.960,740.000,1.000,1.914,0.000
-31558.800,-45550.950,-131343.900,-173918.400,-138819.900,340443.400,-139233.600,69211.340,741.000,1.000,2.540,0.000
-31572.920,-45572.120,-131366.200,-173988.500,-138986.400,340047.200,-139397.600,68751.070,742.000,1.000,5.025,0.000
-31590.590,-45595.290,-131392.000,-174061.600,-139152.400,339645.900,-139561.200,68285.480,743.000,1.000,3.573,0.000
-31607.980,-45617.310,-131418.100,-174133.900,-139316.800,339242.500,-139723.000,67819.300,744.000,1.000,3.854,0.000
-31623.570,-45635.280,-131440.700,-174201.200,-139478.200,338839.800,-139881.400,67358.200,745.000,1.000,12.067,0.000
-31639.760,-45651.720,-131461.200,-174264.800,-139637.000,338435.500,-140037.300,66901.590,746.000,1.000,0.014,0.000
-31659.040,-45672.680,-131483.900,-174330.400,-139795.400,338025.800,-140192.800,66444.500,747.000,1.000,2.116,0.000
-31680.540,-45697.880,-131508.100,-174398.200,-139953.500,337610.900,-140348.200,65987.240,748.000,1.000,0.008,0.000
-31701.360,-45723.140,-131530.900,-174464.500,-140109.100,337194.000,-140501.400,65531.360,749.000,1.000,8.353,0.000
-31718.160,-45746.790,-131550.800,-174525.600,-140262.100,336776.100,-140651.700,65078.980,750.000,1.000,2.454,0.000
-31729.060,-45767.390,-131567.600,-174582.600,-140413.800,336356.300,-140800.800,64629.370,751.000,1.000,4.019,0.000
-31737.210,-45784.730,-131581.300,-174637.500,-140564.500,335934.200,-140948.800,64180.900,752.000,1.000,9.012,0.000
-31747.700,-45807.050,-131596.800,-174695.400,-140715.000,335506.100,-141096.400,63727.540,753.000,1.000,0.012,0.000
-31760.970,-45834.280,-131613.300,-174754.000,-140865.100,335072.400,-141243.700,63271.900,754.000,1.000,1.928,0.000
-31773.080,-45856.240,-131624.600,-174807.600,-141012.700,334639.300,-141388.500,62822.640,755.000,1.000,4.016,0.000
-31780.180,-45872.590,-131631.500,-174857.700,-141157.500,334207.100,-141530.500,62378.750,756.000,1.000,14.067,0.000
-31784.220,-45891.850,-131641.400,-174913.400,-141301.700,333767.400,-141672.100,61929.300,757.000,1.000,0.015,0.000
-31790.290,-45911.480,-131653.400,-174971.400,-141446.000,333320.800,-141813.800,61476.510,758.000,1.000,2.569,0.000
-31800.280,-45925.420,-131662.600,-175022.300,-141589.100,332875.700,-141954.200,61028.500,759.000,1.000,0.017,0.000
-31813.620,-45939.540,-131673.000,-175070.900,-141731.200,332429.400,-142093.700,60578.190,760.000,1.000,1.875,0.000
-31829.600,-45960.130,-131687.800,-175124.000,-141872.700,331976.200,-142232.700,60120.200,761.000,1.000,3.583,0.000
-31843.410,-45979.610,-131699.100,-175173.700,-142011.500,331522.800,-142368.900,59667.290,762.000,1.000,11.455,0.000
-31851.080,-45988.920,-131700.300,-175211.800,-142146.100,331076.300,-142501.000,59228.130,763.000,1.000,7.523,0.000
-31855.840,-45994.500,-131698.600,-175247.600,-142279.500,330628.400,-142631.800,58789.690,764.000,1.000,0.010,0.000
-31860.940,-46003.560,-131698.800,-175285.500,-142413.400,330173.100,-142763.000,58346.570,765.000,1.000,0.004,0.000
-31868.350,-46013.720,-131699.000,-175320.600,-142546.300,329716.300,-142893.400,57906.110,766.000,1.000,2.906,0.000
-31880.440,-46025.700,-131700.900,-175353.500,-142677.300,329260.000,-143021.900,57467.630,767.000,1.000,0.012,0.000
-31894.690,-46043.160,-131706.600,-175389.100,-142807.000,328799.500,-143149.100,57024.620,768.000,1.000,13.122,0.000
-31907.910,-46061.170,-131710.600,-175422.000,-142935.200,328337.100,-143274.800,56583.550,769.000,1.000,4.483,0.000
-31921.770,-46073.950,-131711.100,-175449.600,-143061.700,327876.100,-143398.500,56148.700,770.000,1.000,0.013,0.000
-31935.950,-46084.310,-131710.700,-175476.100,-143186.200,327414.000,-143520.300,55715.880,771.000,1.000,4.358,0.000
-31948.870,-46100.010,-131712.400,-175505.900,-143309.800,326945.700,-143641.100,55280.250,772.000,1.000,4.210,0.000
-31961.660,-46119.610,-131713.900,-175533.700,-143432.700,326474.400,-143761.300,54846.400,773.000,1.000,0.013,0.000
-31974.220,-46138.810,-131714.700,-175559.500,-143553.900,326001.700,-143880.000,54413.410,774.000,1.000,8.322,0.000
-31984.820,-46157.550,-131716.000,-175586.800,-143673.300,325525.300,-143997.000,53977.890,775.000,1.000,11.675,0.000
-31991.550,-46173.850,-131715.000,-175612.200,-143791.300,325046.800,-144113.000,53543.560,776.000,1.000,0.012,0.000
-31994.390,-46184.010,-131707.800,-175630.400,-143908.500,324569.900,-144228.000,53116.360,777.000,1.000,4.957,0.000
-31996.170,-46193.030,-131698.500,-175646.900,-144025.200,324090.600,-144342.100,52689.290,778.000,1.000,0.008,0.000
-31999.550,-46206.790,-131691.900,-175666.700,-144141.100,323604.700,-144455.200,52256.610,779.000,1.000,5.014,0.000
-32004.710,-46222.430,-131686.300,-175686.400,-144255.900,323114.700,-144567.200,51823.770,780.000,1.000,0.012,0.000
-32009.700,-46235.630,-131677.300,-175701.500,-144368.700,322625.300,-144677.400,51395.200,781.000,1.000,4.767,0.000
-32014.160,-46248.570,-131666.600,-175715.600,-144479.500,322135.000,-144785.800,50965.450,782.000,1.000,2.116,0.000
-32018.290,-46261.500,-131654.500,-175729.300,-144589.000,321643.000,-144892.900,50534.720,783.000,1.000,8.887,0.000
-32021.160,-46270.130,-131637.600,-175738.500,-144697.100,321151.500,-144998.400,50109.050,784.000,1.000,10.080,0.000
-32023.220,-46273.560,-131617.800,-175744.100,-144803.300,320658.800,-145102.000,49686.560,785.000,1.000,0.011,0.000
-32026.310,-46275.410,-131598.500,-175750.100,-144907.900,320161.400,-145203.800,49262.850,786.000,1.000,0.004,0.000
-32029.970,-46277.730,-131579.300,-175758.100,-145011.600,319659.700,-145305.100,48838.580,787.000,1.000,2.925,0.000
-32033.460,-46280.960,-131559.900,-175767.400,-145115.100,319156.800,-145406.300,48415.890,788.000,1.000,0.007,0.000
-32038.270,-46287.880,-131543.200,-175778.000,-145217.800,318652.600,-145506.700,47992.290,789.000,1.000,10.966,0.000
-32045.350,-46298.450,-131529.600,-175787.300,-145319.800,318146.400,-145606.100,47568.880,790.000,1.000,7.092,0.000
-32053.330,-46306.540,-131513.700,-175791.000,-145419.800,317641.100,-145703.700,47150.190,791.000,1.000,0.013,0.000
-32061.280,-46311.090,-131493.000,-175789.000,-145516.500,317137.400,-145798.200,46736.330,792.000,1.000,0.005,0.000
-32069.700,-46319.140,-131472.000,-175787.700,-145611.000,316631.100,-145890.500,46320.950,793.000,1.000,5.027,0.000
-32078.430,-46329.650,-131451.100,-175786.100,-145704.500,316123.000,-145981.900,45907.550,794.000,1.000,2.846,0.000
-32087.580,-46339.980,-131430.000,-175784.000,-145798.000,315613.100,-146073.200,45496.600,795.000,1.000,2.126,0.000
-32097.140,-46352.090,-131411.300,-175784.400,-145891.800,315097.000,-146164.300,45081.420,796.000,1.000,3.876,0.000
-32105.490,-46365.170,-131394.500,-175786.300,-145984.600,314574.500,-146254.400,44660.750,797.000,1.000,16.158,0.000
-32110.330,-46373.810,-131373.200,-175781.500,-146075.000,314053.800,-146342.300,44244.880,798.000,1.000,3.044,0.000
-32113.050,-46380.060,-131348.300,-175771.900,-146163.300,313536.800,-146428.300,43833.340,799.000,1.000,0.008,0.000
-32116.970,-46389.520,-131325.500,-175764.600,-146251.000,313015.800,-146513.700,43419.710,800.000,1.000,2.893,0.000
-32122.020,-46400.490,-131304.200,-175760.100,-146337.300,312489.500,-146597.500,43005.380,801.000,1.000,0.027,0.000
-32125.690,-46408.630,-131279.200,-175753.700,-146421.800,311961.500,-146679.400,42594.660,802.000,1.000,1.872,0.000
-32127.060,-46416.640,-131251.500,-175746.800,-146505.700,311430.300,-146760.900,42182.750,803.000,1.000,8.543,0.000
-32125.920,-46424.070,-131221.600,-175736.900,-146589.400,310897.300,-146842.200,41770.550,804.000,1.000,4.499,0.000
-32121.740,-46425.160,-131187.000,-175719.200,-146671.200,310368.000,-146921.700,41364.870,805.000,1.000,0.013,0.000
-32117.280,-46420.630,-131149.500,-175697.200,-146750.200,309840.200,-146998.300,40963.100,806.000,1.000,6.960,0.000
-32116.290,-46418.000,-131114.600,-175678.700,-146827.500,309306.700,-147073.500,40556.880,807.000,1.000,3.530,0.000
-32117.300,-46418.670,-131082.000,-175662.800,-146905.200,308767.600,-147148.900,40148.180,808.000,1.000,31.703,0.000
-32118.180,-46420.700,-131048.300,-175646.500,-146983.500,308225.800,-147224.600,39741.060,809.000,1.000,0.019,0.000
-32118.290,-46422.960,-131012.400,-175630.200,-147061.000,307681.700,-147299.300,39332.890,810.000,1.000,1.878,0.000
-32115.760,-46421.290,-130973.000,-175610.500,-147135.600,307137.800,-147371.600,38925.800,811.000,1.000,6.445,0.000
-32109.740,-46414.020,-130929.400,-175583.700,-147207.600,306597.100,-147441.600,38525.650,812.000,1.000,2.406,0.000
-32103.800,-46407.140,-130885.100,-175552.000,-147278.700,306056.600,-147510.500,38131.000,813.000,1.000,2.329,0.000
-32100.140,-46406.540,-130844.500,-175523.600,-147349.100,305510.400,-147578.600,37732.700,814.000,1.000,4.926,0.000
-32095.980,-46407.360,-130803.900,-175497.000,-147418.000,304960.900,-147645.200,37332.790,815.000,1.000,2.435,0.000
-32090.470,-46404.110,-130759.100,-175468.000,-147485.700,304412.700,-147710.600,36937.110,816.000,1.000,2.532,0.000
-32086.140,-46400.200,-130713.500,-175436.800,-147552.700,303863.300,-147775.400,36543.560,817.000,1.000,2.466,0.000
-32085.580,-46401.750,-130672.100,-175406.500,-147619.300,303309.100,-147839.900,36146.780,818.000,1.000,2.528,0.000
-32089.900,-46406.660,-130633.000,-175375.000,-147684.900,302753.500,-147903.400,35750.280,819.000,1.000,2.460,0.000
-32096.130,-46410.840,-130594.100,-175342.600,-147748.900,302197.800,-147965.200,35355.170,820.000,1.000,3.113,0.000
-32100.660,-46415.060,-130555.600,-175310.200,-147811.000,301640.500,-148025.000,34960.760,821.000,1.000,0.030,0.000
-32104.470,-46420.110,-130517.400,-175277.700,-147871.700,301081.700,-148083.500,34566.900,822.000,1.000,1.692,0.000
-32107.890,-46422.340,-130476.700,-175241.800,-147932.100,300523.800,-148141.600,34176.430,823.000,1.000,2.536,0.000
-32108.010,-46421.760,-130433.700,-175204.700,-147991.500,299966.300,-148198.800,33786.890,824.000,1.000,2.439,0.000
-32105.500,-46421.000,-130389.400,-175167.100,-148048.900,299407.600,-148254.100,33397.220,825.000,1.000,2.546,0.000
-32104.470,-46420.490,-130343.500,-175128.200,-148105.300,298846.800,-148308.500,33009.050,826.000,1.000,3.070,0.000
-32103.580,-46417.430,-130294.500,-175086.900,-148161.000,298285.000,-148361.900,32623.320,827.000,1.000,0.012,0.000
-32100.400,-46413.910,-130245.900,-175047.600,-148215.500,297719.300,-148413.900,32234.210,828.000,1.000,17.932,0.000
-32097.020,-46412.460,-130199.500,-175010.000,-148269.100,297148.300,-148465.300,31842.430,829.000,1.000,3.449,0.000
-32094.650,-46410.440,-130151.700,-174970.200,-148322.200,296575.300,-148516.400,31454.190,830.000,1.000,0.009,0.000
-32090.950,-46404.770,-130100.000,-174927.600,-148374.700,296001.800,-148566.700,31068.190,831.000,1.000,4.081,0.000
-32083.970,-46397.170,-130046.400,-174883.000,-148425.900,295427.800,-148615.600,30680.960,832.000,1.000,2.440,0.000
-32075.230,-46390.150,-129991.000,-174835.000,-148475.800,294855.200,-148663.100,30296.550,833.000,1.000,2.574,0.000
-32068.310,-46383.090,-129933.700,-174783.700,-148524.200,294284.000,-148709.400,29917.950,834.000,1.000,2.844,0.000
-32063.120,-46376.880,-129877.400,-174732.700,-148570.500,293709.900,-148753.800,29538.040,835.000,1.000,2.651,0.000
-32056.730,-46371.510,-129821.300,-174681.600,-148615.200,293132.300,-148796.600,29154.610,836.000,1.000,0.012,0.000
-32047.090,-46362.020,-129759.500,-174626.000,-148658.500,292556.400,-148837.800,28775.740,837.000,1.000,9.029,0.000
-32035.640,-46348.210,-129693.000,-174566.100,-148700.400,291982.700,-148877.500,28404.430,838.000,1.000,0.015,0.000
-32027.770,-46339.270,-129631.900,-174510.100,-148742.100,291403.300,-148917.000,28029.590,839.000,1.000,11.389,0.000
-32025.450,-46336.630,-129578.400,-174458.000,-148784.100,290817.200,-148957.000,27649.310,840.000,1.000,0.011,0.000
-32024.390,-46334.090,-129526.100,-174404.100,-148825.100,290231.000,-148995.800,27270.120,841.000,1.000,1.452,0.000
-32020.930,-46329.960,-129470.500,-174346.600,-148864.500,289647.300,-149032.800,26893.560,842.000,1.000,2.595,0.000
-32015.580,-46325.340,-129411.100,-174286.900,-148902.200,289065.200,-149068.100,26519.000,843.000,1.000,19.538,0.000
-32010.280,-46318.860,-129347.200,-174222.300,-148938.000,288484.900,-149101.700,26152.040,844.000,1.000,0.019,0.000
-32006.280,-46311.910,-129283.100,-174157.600,-148972.900,287902.300,-149134.600,25787.340,845.000,1.000,3.014,0.000
-32004.380,-46307.050,-129222.900,-174097.900,-149008.100,287312.400,-149167.900,25416.380,846.000,1.000,0.016,0.000
-32002.130,-46301.300,-129163.900,-174039.500,-149042.800,286719.200,-149200.800,25042.660,847.000,1.000,0.004,0.000
-31994.900,-46288.790,-129099.800,-173974.000,-149075.000,286129.900,-149230.900,24676.150,848.000,1.000,2.396,0.000
-31986.330,-46276.000,-129034.000,-173906.400,-149105.900,285540.100,-149259.400,24310.900,849.000,1.000,2.881,0.000
-31982.820,-46271.810,-128972.400,-173842.900,-149137.100,284944.400,-149288.300,23940.230,850.000,1.000,8.580,0.000
-31981.290,-46271.330,-128912.900,-173781.000,-149168.300,284346.000,-149317.400,23568.720,851.000,1.000,3.060,0.000
-31975.980,-46263.840,-128849.400,-173714.800,-149198.100,283750.000,-149345.100,23202.150,852.000,1.000,0.016,0.000
-31967.700,-46250.420,-128782.400,-173644.700,-149225.900,283156.000,-149370.900,22837.610,853.000,1.000,1.884,0.000
-31958.480,-46237.160,-128713.600,-173572.200,-149251.900,282561.800,-149395.000,22474.380,854.000,1.000,15.048,0.000
-31947.720,-46225.750,-128642.600,-173498.000,-149276.800,281966.500,-149418.400,22113.640,855.000,1.000,3.047,0.000
-31935.130,-46214.710,-128570.000,-173424.400,-149302.100,281368.500,-149442.000,21751.800,856.000,1.000,0.015,0.000
-31923.060,-46202.980,-128497.700,-173352.000,-149327.000,280766.800,-149464.800,21387.490,857.000,1.000,1.886,0.000
-31912.420,-46189.090,-128423.800,-173276.300,-149349.200,280165.000,-149484.700,21027.830,858.000,1.000,5.032,0.000
-31900.600,-46172.830,-128346.300,-173195.000,-149369.100,279566.200,-149502.200,20676.260,859.000,1.000,5.492,0.000
-31887.230,-46159.600,-128270.500,-173115.400,-149388.600,278965.400,-149519.600,20323.140,860.000,1.000,0.016,0.000
-31874.000,-46149.520,-128198.000,-173038.800,-149407.600,278360.800,-149536.800,19966.400,861.000,1.000,1.923,0.000
-31861.710,-46137.070,-128123.900,-172960.200,-149425.900,277755.200,-149553.100,19612.150,862.000,1.000,11.159,0.000
-31850.510,-46121.640,-128047.000,-172879.000,-149443.700,277149.600,-149568.900,19260.410,863.000,1.000,3.060,0.000
-31839.480,-46105.270,-127969.100,-172797.100,-149460.100,276543.800,-149583.000,18907.540,864.000,1.000,0.014,0.000
-31829.370,-46089.530,-127891.400,-172713.100,-149475.200,275938.100,-149596.000,18556.130,865.000,1.000,1.873,0.000
-31821.190,-46077.460,-127815.900,-172629.900,-149489.800,275329.800,-149608.800,18205.100,866.000,1.000,8.878,0.000
-31812.710,-46067.400,-127741.000,-172547.300,-149502.800,274718.600,-149619.900,17853.550,867.000,1.000,5.660,0.000
-31802.350,-46054.670,-127664.500,-172463.900,-149513.300,274106.400,-149628.600,17502.000,868.000,1.000,0.011,0.000
-31791.790,-46036.840,-127585.600,-172376.900,-149522.700,273496.000,-149635.900,17154.840,869.000,1.000,1.881,0.000
-31784.760,-46020.770,-127509.100,-172290.600,-149532.100,272884.500,-149643.300,16808.120,870.000,1.000,3.575,0.000
-31782.030,-46010.970,-127437.400,-172207.100,-149542.100,272268.100,-149651.300,16457.140,871.000,1.000,13.899,0.000
-31779.550,-46001.920,-127366.700,-172123.200,-149552.200,271650.100,-149659.300,16105.450,872.000,1.000,3.012,0.000
-31773.890,-45989.460,-127292.400,-172037.300,-149561.400,271032.400,-149666.600,15757.190,873.000,1.000,0.009,0.000
-31763.890,-45974.710,-127214.200,-171952.300,-149568.700,270413.500,-149671.900,15408.680,874.000,1.000,1.938,0.000
-31749.580,-45956.110,-127131.400,-171863.800,-149573.500,269796.000,-149674.800,15063.190,875.000,1.000,5.050,0.000
-31734.440,-45935.770,-127046.200,-171770.200,-149577.300,269181.000,-149676.800,14723.890,876.000,1.000,2.538,0.000
-31721.760,-45919.520,-126962.800,-171676.700,-149581.000,268564.100,-149678.600,14383.500,877.000,1.000,3.565,0.000
-31711.650,-45908.940,-126883.500,-171587.800,-149584.100,267941.800,-149679.900,14034.130,878.000,1.000,11.936,0.000
-31700.840,-45896.220,-126802.200,-171496.500,-149586.000,267318.900,-149679.900,13684.520,879.000,1.000,0.015,0.000
-31685.840,-45875.160,-126712.300,-171395.000,-149585.800,266702.400,-149677.900,13346.420,880.000,1.000,2.555,0.000
-31668.420,-45851.860,-126617.800,-171288.000,-149583.900,266089.500,-149674.200,13014.720,881.000,1.000,0.014,0.000
-31652.730,-45834.860,-126527.000,-171185.500,-149582.000,265471.900,-149670.500,12678.720,882.000,1.000,1.882,0.000
-31637.310,-45820.430,-126438.500,-171086.100,-149579.800,264850.500,-149666.300,12340.960,883.000,1.000,8.604,0.000
-31618.770,-45800.140,-126346.800,-170983.400,-149576.000,264230.400,-149660.600,12006.740,884.000,1.000,3.881,0.000
-31601.440,-45776.020,-126254.900,-170880.500,-149571.100,263608.600,-149654.100,11669.850,885.000,1.000,3.520,0.000
-31590.040,-45754.280,-126165.100,-170779.200,-149565.600,262984.100,-149647.000,11331.140,886.000,1.000,9.524,0.000
-31579.660,-45734.770,-126074.300,-170676.600,-149559.600,262361.000,-149639.000,10997.780,887.000,1.000,0.015,0.000
-31565.050,-45713.750,-125980.300,-170570.000,-149552.500,261740.800,-149629.800,10671.230,888.000,1.000,11.949,0.000
-31549.300,-45692.470,-125886.400,-170462.100,-149544.100,261119.200,-149619.500,10345.570,889.000,1.000,2.518,0.000
-31538.210,-45673.810,-125795.200,-170354.600,-149535.600,260493.600,-149609.100,10019.350,890.000,1.000,2.445,0.000
-31532.670,-45659.120,-125707.500,-170250.000,-149527.100,259863.300,-149598.900,9690.763,891.000,1.000,2.567,0.000
-31527.740,-45644.420,-125620.900,-170146.900,-149517.600,259230.100,-149587.700,9360.320,892.000,1.000,2.456,0.000
-31518.570,-45625.720,-125532.300,-170040.900,-149506.100,258598.800,-149574.500,9031.924,893.000,1.000,2.534,0.000
-31505.000,-45604.030,-125440.000,-169928.500,-149493.300,257971.800,-149559.800,8709.731,894.000,1.000,3.076,0.000
-31490.390,-45582.610,-125348.000,-169816.300,-149479.800,257344.000,-149544.400,8388.605,895.000,1.000,0.011,0.000
-31477.180,-45562.850,-125258.600,-169708.200,-149465.500,256711.700,-149528.300,8065.210,896.000,1.000,12.933,0.000
-31463.360,-45544.380,-125168.500,-169601.900,-149450.600,256076.600,-149511.400,7741.812,897.000,1.000,3.486,0.000
-31444.140,-45521.040,-125071.100,-169490.700,-149434.300,255444.300,-149493.200,7423.618,898.000,1.000,0.018,0.000
-31420.870,-45493.040,-124969.200,-169376.800,-149416.300,254813.800,-149473.500,7105.651,899.000,1.000,1.456,0.000
-31400.880,-45468.340,-124870.800,-169264.300,-149398.300,254180.500,-149453.500,6784.302,900.000,1.000,2.587,0.000
-31386.630,-45449.430,-124776.300,-169151.600,-149380.700,253545.100,-149434.100,6464.234,901.000,1.000,13.894,0.000
-31374.710,-45432.480,-124681.600,-169036.900,-149362.400,252909.500,-149414.200,6147.033,902.000,1.000,9.219,0.000
-31361.110,-45412.660,-124584.800,-168920.600,-149342.500,252274.300,-149392.800,5830.369,903.000,1.000,0.015,0.000
-31343.230,-45385.660,-124483.900,-168800.100,-149320.500,251642.100,-149369.300,5518.548,904.000,1.000,1.867,0.000
-31323.710,-45355.050,-124380.000,-168676.000,-149296.800,251012.300,-149343.700,5212.946,905.000,1.000,2.422,0.000
-31306.240,-45330.080,-124278.700,-168554.700,-149272.600,250378.800,-149317.500,4904.981,906.000,1.000,2.575,0.000
-31289.540,-45311.650,-124180.600,-168437.000,-149248.400,249740.800,-149291.400,4591.949,907.000,1.000,2.433,0.000
-31272.080,-45291.540,-124080.500,-168317.300,-149223.700,249103.400,-149265.300,4280.091,908.000,1.000,2.570,0.000
-31255.990,-45267.780,-123978.300,-168195.800,-149198.600,248465.900,-149238.500,3969.754,909.000,1.000,4.525,0.000
-31240.990,-45244.430,-123878.200,-168077.000,-149172.700,247824.200,-149210.800,3655.288,910.000,1.000,0.013,0.000
-31222.580,-45217.570,-123776.200,-167954.800,-149145.400,247183.600,-149181.600,3343.813,911.000,1.000,7.899,0.000
-31200.380,-45184.460,-123668.000,-167825.200,-149116.500,246549.100,-149151.000,3041.627,912.000,1.000,4.482,0.000
-31180.740,-45152.730,-123559.900,-167696.600,-149087.600,245913.800,-149120.400,2740.173,913.000,1.000,0.010,0.000
-31166.550,-45126.750,-123457.500,-167573.100,-149058.800,245272.700,-149089.900,2432.243,914.000,1.000,5.504,0.000
-31153.280,-45100.870,-123354.800,-167444.600,-149028.300,244633.000,-149057.700,2127.831,915.000,1.000,12.082,0.000
-31138.390,-45074.600,-123249.500,-167311.500,-148996.600,243996.500,-149024.300,1828.211,916.000,1.000,0.010,0.000
-31125.160,-45052.450,-123146.800,-167182.500,-148964.800,243357.300,-148990.900,1525.563,917.000,1.000,1.920,0.000
-31114.520,-45033.100,-123048.100,-167058.000,-148932.300,242715.200,-148956.900,1219.736,918.000,1.000,2.429,0.000
-31101.150,-45009.120,-122945.700,-166927.600,-148897.600,242077.300,-148920.500,920.745,919.000,1.000,3.540,0.000
-31082.590,-44983.200,-122839.900,-166793.000,-148861.100,241441.900,-148882.300,624.855,920.000,1.000,9.500,0.000
-31061.540,-44960.410,-122734.800,-166661.000,-148824.100,240802.800,-148843.500,324.618,921.000,1.000,0.014,0.000
-31042.550,-44939.020,-122629.700,-166531.800,-148787.900,240160.700,-148805.500,22.702,922.000,1.000,5.504,0.000
-31029.000,-44919.250,-122525.200,-166404.300,-148753.600,239515.200,-148769.200,-278.832,923.000,1.000,14.516,0.000
-31017.920,-44903.180,-122424.400,-166280.100,-148718.900,238864.900,-148732.800,-584.885,924.000,1.000,0.017,0.000
-31001.930,-44885.320,-122322.300,-166153.400,-148681.000,238216.700,-148693.400,-889.826,925.000,1.000,2.986,0.000
-30977.990,-44859.360,-122212.600,-166019.100,-148640.300,237575.600,-148651.300,-1185.692,926.000,1.000,0.008,0.000
-30949.900,-44827.260,-122096.600,-165880.400,-148598.500,236937.600,-148608.000,-1475.473,927.000,1.000,0.004,0.000
-30922.250,-44796.130,-121981.100,-165743.200,-148556.400,236297.200,-148564.300,-1766.833,928.000,1.000,5.026,0.000
-30895.750,-44769.040,-121868.200,-165608.200,-148514.100,235654.300,-148520.300,-2059.241,929.000,1.000,2.425,0.000
-30869.760,-44745.000,-121755.600,-165472.700,-148471.000,235010.800,-148475.700,-2349.928,930.000,1.000,2.471,0.000
-30844.480,-44720.480,-121642.000,-165336.400,-148426.700,234366.300,-148430.100,-2641.931,931.000,1.000,6.548,0.000
-30820.970,-44692.790,-121527.200,-165198.400,-148381.900,233720.400,-148383.600,-2935.000,932.000,1.000,11.707,0.000
-30798.810,-44662.730,-121411.500,-165057.900,-148336.900,233074.400,-148337.000,-3225.319,933.000,1.000,0.016,0.000
-30774.800,-44631.730,-121294.500,-164914.500,-148291.400,232429.400,-148289.800,-3512.128,934.000,1.000,1.729,0.000
-30748.500,-44601.730,-121177.400,-164771.500,-148245.000,231783.500,-148241.800,-3800.583,935.000,1.000,2.525,0.000
-30723.570,-44571.460,-121059.900,-164629.300,-148197.700,231136.400,-148192.700,-4088.755,936.000,1.000,5.014,0.000
-30700.900,-44538.950,-120942.100,-164487.300,-148149.500,230489.700,-148142.600,-4373.229,937.000,1.000,2.433,0.000
-30680.070,-44505.250,-120825.600,-164345.100,-148099.900,229843.300,-148091.500,-4655.646,938.000,1.000,12.075,0.000
-30661.130,-44472.190,-120711.100,-164202.100,-148048.900,229197.800,-148039.200,-4938.707,939.000,1.000,0.014,0.000
-30642.950,-44437.390,-120594.100,-164054.300,-147997.200,228556.500,-147985.800,-5217.310,940.000,1.000,1.911,0.000
-30627.920,-44401.130,-120476.000,-163904.500,-147944.900,227918.000,-147931.700,-5492.499,941.000,1.000,2.554,0.000
-30618.710,-44370.650,-120364.100,-163758.700,-147893.000,227274.800,-147878.100,-5770.903,942.000,1.000,8.603,0.000
-30611.520,-44349.690,-120260.300,-163619.600,-147841.800,226623.300,-147825.400,-6054.832,943.000,1.000,4.478,0.000
-30601.010,-44328.080,-120154.800,-163479.400,-147789.900,225970.000,-147772.200,-6336.690,944.000,1.000,0.009,0.000
-30587.460,-44299.480,-120044.300,-163335.200,-147735.800,225320.600,-147716.800,-6615.699,945.000,1.000,6.002,0.000
-30573.680,-44268.730,-119932.400,-163188.000,-147679.300,224673.900,-147658.800,-6894.060,946.000,1.000,0.011,0.000
-30560.090,-44240.300,-119821.000,-163040.200,-147622.200,224027.100,-147600.100,-7171.054,947.000,1.000,19.041,0.000
-30545.120,-44212.470,-119708.000,-162892.400,-147565.800,223379.500,-147542.300,-7446.521,948.000,1.000,0.015,0.000
-30528.350,-44185.020,-119593.700,-162746.100,-147509.100,222730.100,-147484.200,-7724.286,949.000,1.000,2.984,0.000
-30510.320,-44156.980,-119477.200,-162599.300,-147451.300,222080.100,-147424.900,-8000.591,950.000,1.000,0.018,0.000
-30490.200,-44124.840,-119357.300,-162449.600,-147392.100,221432.400,-147364.100,-8269.877,951.000,1.000,0.006,0.000
-30466.020,-44089.280,-119234.400,-162297.300,-147331.500,220787.600,-147301.800,-8535.160,952.000,1.000,2.275,0.000
-30441.270,-44057.990,-119114.500,-162147.600,-147271.100,220139.600,-147239.900,-8805.582,953.000,1.000,2.551,0.000
-30418.920,-44032.160,-118998.300,-162001.600,-147212.300,219485.600,-147179.500,-9081.261,954.000,1.000,4.009,0.000
-30392.580,-44001.480,-118877.000,-161850.700,-147152.300,218834.300,-147118.000,-9351.896,955.000,1.000,6.022,0.000
-30359.600,-43963.180,-118748.500,-161693.200,-147089.400,218189.400,-147053.600,-9616.644,956.000,1.000,30.159,0.000
-30326.920,-43925.500,-118619.900,-161536.000,-147025.700,217544.600,-146988.400,-9882.541,957.000,1.000,0.015,0.000
-30297.640,-43891.320,-118493.200,-161381.600,-146962.300,216896.200,-146923.600,-10150.450,958.000,1.000,0.004,0.000
-30268.700,-43857.370,-118365.100,-161225.600,-146897.800,216246.800,-146857.600,-10416.560,959.000,1.000,2.275,0.000
-30239.050,-43823.730,-118237.400,-161069.400,-146832.300,215595.900,-146790.700,-10684.650,960.000,1.000,7.678,0.000
-30209.660,-43788.990,-118110.100,-160911.900,-146767.400,214945.000,-146724.300,-10952.480,961.000,1.000,0.011,0.000
-30180.040,-43750.760,-117979.500,-160749.400,-146701.400,214298.500,-146657.000,-11214.570,962.000,1.000,0.004,0.000
-30150.970,-43712.280,-117847.700,-160585.500,-146633.700,213652.900,-146587.700,-11474.260,963.000,1.000,2.902,0.000
-30125.570,-43678.020,-117720.100,-160426.600,-146565.300,213002.800,-146518.000,-11737.570,964.000,1.000,0.008,0.000
-30103.470,-43644.120,-117593.800,-160268.000,-146496.400,212351.900,-146447.800,-11998.340,965.000,1.000,2.594,0.000
-30082.550,-43608.940,-117467.700,-160108.800,-146426.900,211701.600,-146377.100,-12257.070,966.000,1.000,0.008,0.000
-30062.160,-43576.040,-117343.300,-159951.300,-146357.300,211049.700,-146306.200,-12518.610,967.000,1.000,4.775,0.000
-30039.880,-43543.810,-117217.900,-159792.300,-146286.900,210398.700,-146234.300,-12779.310,968.000,1.000,4.558,0.000
-30014.340,-43506.400,-117087.000,-159625.800,-146214.700,209752.800,-146160.700,-13031.890,969.000,1.000,25.018,0.000
-29990.160,-43468.530,-116957.000,-159458.900,-146142.100,209107.000,-146086.700,-13283.620,970.000,1.000,2.423,0.000
-29969.400,-43433.470,-116831.300,-159295.200,-146070.200,208459.000,-146013.200,-13537.970,971.000,1.000,2.547,0.000
-29949.040,-43397.770,-116705.400,-159130.000,-145997.500,207812.900,-145939.100,-13790.150,972.000,1.000,2.456,0.000
-29927.680,-43361.960,-116577.400,-158962.600,-145922.800,207167.700,-145863.200,-14041.470,973.000,1.000,2.529,0.000
-29904.000,-43326.410,-116447.800,-158794.300,-145846.400,206522.000,-145785.700,-14294.350,974.000,1.000,5.007,0.000
-29877.080,-43287.890,-116314.000,-158621.300,-145768.400,205880.500,-145706.200,-14542.050,975.000,1.000,2.456,0.000
-29850.130,-43248.670,-116179.400,-158447.500,-145690.200,205240.600,-145626.600,-14785.270,976.000,1.000,2.575,0.000
-29826.750,-43214.730,-116051.200,-158280.900,-145613.800,204593.400,-145548.600,-15034.710,977.000,1.000,4.980,0.000
-29805.980,-43186.870,-115929.000,-158120.100,-145538.500,203939.000,-145471.700,-15292.010,978.000,1.000,2.432,0.000
-29782.890,-43157.410,-115803.600,-157956.500,-145462.200,203287.200,-145394.000,-15545.930,979.000,1.000,2.543,0.000
-29756.670,-43122.430,-115672.200,-157788.300,-145384.200,202640.300,-145314.800,-15792.360,980.000,1.000,3.084,0.000
-29730.300,-43087.430,-115541.000,-157621.100,-145305.300,201991.900,-145234.600,-16039.600,981.000,1.000,0.008,0.000
-29702.980,-43053.230,-115410.300,-157453.200,-145225.700,201342.100,-145153.400,-16287.140,982.000,1.000,1.923,0.000
-29674.280,-43016.850,-115277.300,-157283.200,-145145.600,200692.800,-145071.900,-16531.600,983.000,1.000,2.466,0.000
-29646.280,-42978.810,-115142.800,-157113.300,-145065.400,200043.900,-144990.500,-16775.100,984.000,1.000,2.520,0.000
-29619.220,-42940.340,-115008.200,-156944.700,-144984.200,199396.400,-144908.000,-17019.730,985.000,1.000,5.692,0.000
-29593.550,-42901.200,-114873.100,-156773.500,-144901.100,198750.900,-144823.800,-17261.590,986.000,1.000,0.010,0.000
-29569.640,-42863.060,-114739.200,-156600.700,-144817.700,198104.000,-144739.200,-17501.880,987.000,1.000,1.744,0.000
-29548.090,-42828.850,-114607.800,-156429.500,-144735.200,197453.300,-144655.600,-17744.840,988.000,1.000,4.016,0.000
-29528.810,-42798.190,-114478.300,-156261.200,-144652.800,196800.400,-144571.800,-17990.560,989.000,1.000,6.659,0.000
-29507.260,-42763.500,-114345.800,-156089.600,-144568.900,196151.200,-144486.200,-18230.290,990.000,1.000,0.011,0.000
-29480.790,-42722.220,-114209.000,-155914.800,-144483.300,195506.000,-144399.000,-18464.070,991.000,1.000,5.876,0.000
-29452.180,-42678.770,-114070.500,-155738.100,-144396.400,194862.800,-144310.700,-18695.990,992.000,1.000,13.100,0.000
-29424.410,-42636.450,-113932.200,-155559.100,-144308.000,194221.800,-144221.200,-18925.790,993.000,1.000,0.011,0.000
-29398.710,-42595.860,-113794.900,-155378.300,-144219.200,193581.700,-144131.200,-19153.340,994.000,1.000,2.373,0.000
-29374.230,-42558.230,-113660.100,-155199.900,-144130.000,192939.100,-144040.900,-19384.090,995.000,1.000,0.006,0.000
-29348.490,-42521.320,-113525.600,-155021.200,-144040.100,192296.700,-143949.900,-19614.300,996.000,1.000,1.958,0.000
-29322.170,-42484.600,-113390.700,-154841.600,-143950.400,191654.600,-143859.000,-19840.070,997.000,1.000,2.546,0.000
-29296.490,-42449.940,-113256.500,-154664.900,-143861.200,191008.600,-143768.600,-20066.290,998.000,1.000,3.466,0.000
-29269.520,-42415.620,-113122.600,-154491.600,-143770.600,190358.200,-143676.700,-20297.220,999.000,1.000,14.677,0.000
-29240.390,-42377.460,-112985.700,-154316.500,-143678.400,189708.200,-143583.100,-20527.830,1000.000,1.000,0.022,0.000
-29210.680,-42335.450,-112845.800,-154137.700,-143586.300,189061.000,-143489.700,-20755.460,1001.000,1.000,1.834,0.000
-29180.530,-42292.610,-112706.400,-153958.300,-143494.100,188416.000,-143396.500,-20984.350,1002.000,1.000,2.449,0.000
-29149.070,-42253.270,-112569.400,-153780.800,-143401.800,187770.600,-143303.100,-21216.470,1003.000,1.000,3.548,0.000
-29118.320,-42219.960,-112433.900,-153607.100,-143310.500,187121.400,-143210.700,-21449.640,1004.000,1.000,14.519,0.000
-29091.240,-42189.610,-112298.800,-153435.000,-143220.300,186468.300,-143118.900,-21682.040,1005.000,1.000,0.019,0.000
-29064.750,-42155.820,-112161.800,-153260.500,-143128.200,185816.300,-143025.300,-21913.660,1006.000,1.000,2.556,0.000
-29033.610,-42114.090,-112018.900,-153078.800,-143032.600,185171.400,-142928.600,-22139.190,1007.000,1.000,0.015,0.000
-28998.570,-42065.650,-111870.400,-152890.400,-142934.600,184532.600,-142829.500,-22355.890,1008.000,1.000,1.887,0.000
-28964.940,-42017.430,-111721.500,-152701.100,-142836.500,183893.800,-142730.300,-22569.540,1009.000,1.000,3.447,0.000
-28936.190,-41976.060,-111578.300,-152517.200,-142739.400,183250.000,-142631.900,-22788.880,1010.000,1.000,9.035,0.000
-28912.630,-41937.800,-111439.600,-152335.800,-142642.500,182605.000,-142533.900,-23010.370,1011.000,1.000,3.011,0.000
-28894.040,-41898.040,-111303.300,-152153.700,-142545.400,181962.000,-142435.700,-23230.690,1012.000,1.000,0.010,0.000
-28877.980,-41857.880,-111168.500,-151970.900,-142447.600,181320.300,-142336.800,-23449.860,1013.000,1.000,5.518,0.000
-28861.310,-41820.340,-111035.300,-151789.300,-142348.900,180678.200,-142236.900,-23668.740,1014.000,1.000,14.500,0.000
-28842.990,-41784.840,-110901.800,-151608.800,-142250.200,180033.900,-142137.000,-23887.290,1015.000,1.000,0.014,0.000
-28821.310,-41748.740,-110765.400,-151429.600,-142151.300,179387.200,-142036.800,-24107.960,1016.000,1.000,1.913,0.000
-28794.970,-41709.690,-110624.400,-151247.600,-142050.800,178742.000,-141934.800,-24326.340,1017.000,1.000,2.581,0.000
-28766.530,-41668.160,-110480.800,-151061.500,-141949.100,178100.000,-141831.800,-24539.530,1018.000,1.000,2.431,0.000
-28736.460,-41624.450,-110335.500,-150870.600,-141847.100,177462.300,-141728.500,-24748.320,1019.000,1.000,8.552,0.000
-28704.960,-41583.240,-110191.800,-150679.200,-141743.800,176826.500,-141624.300,-24958.530,1020.000,1.000,3.076,0.000
-28674.550,-41546.970,-110052.200,-150491.200,-141640.100,176187.700,-141519.500,-25171.630,1021.000,1.000,0.012,0.000
-28644.670,-41509.000,-109911.900,-150304.000,-141536.900,175546.700,-141415.300,-25382.620,1022.000,1.000,1.908,0.000
-28615.190,-41468.220,-109769.300,-150117.500,-141434.400,174904.900,-141311.600,-25593.730,1023.000,1.000,9.013,0.000
-28586.790,-41431.220,-109628.600,-149935.400,-141332.500,174260.900,-141208.400,-25811.330,1024.000,1.000,6.665,0.000
-28555.180,-41393.250,-109486.300,-149750.700,-141229.400,173620.300,-141104.000,-26026.410,1025.000,1.000,0.016,0.000
-28518.910,-41349.000,-109338.400,-149558.000,-141123.900,172985.100,-140997.400,-26232.630,1026.000,1.000,2.394,0.000
-28482.050,-41303.510,-109188.400,-149365.200,-141016.900,172348.100,-140889.500,-26440.210,1027.000,1.000,0.018,0.000
-28447.620,-41260.390,-109040.300,-149177.200,-140910.300,171706.300,-140781.800,-26654.290,1028.000,1.000,8.360,0.000
-28414.890,-41219.200,-108893.600,-148990.900,-140804.600,171064.000,-140674.900,-26867.530,1029.000,1.000,2.526,0.000
-28380.920,-41176.480,-108744.700,-148801.800,-140698.800,170424.700,-140567.900,-27074.020,1030.000,1.000,6.042,0.000
-28345.250,-41131.480,-108595.000,-148612.500,-140592.000,169786.100,-140460.000,-27279.210,1031.000,1.000,10.643,0.000
-28310.440,-41086.700,-108446.500,-148424.300,-140484.200,169146.900,-140351.200,-27484.790,1032.000,1.000,0.013,0.000
-28276.740,-41039.540,-108295.700,-148232.800,-140375.300,168511.000,-140241.200,-27685.850,1033.000,1.000,1.737,0.000
-28243.890,-40990.200,-108143.100,-148035.900,-140265.600,167879.000,-140130.300,-27882.570,1034.000,1.000,2.576,0.000
-28213.050,-40944.900,-107994.700,-147839.800,-140155.600,167245.200,-140019.000,-28082.670,1035.000,1.000,2.456,0.000
-28183.490,-40900.740,-107848.000,-147644.300,-140045.500,166610.200,-139907.700,-28282.420,1036.000,1.000,8.980,0.000
